timestamps,TP9,AF7,AF8,TP10,Marker0
0.000,-67.383,39.062,-23.438,-98.145,NaN
0.004,-61.523,28.809,-18.066,-101.074,NaN
0.008,-59.082,48.340,-10.254,-91.797,NaN
0.012,-48.828,59.570,-15.625,-82.031,NaN
0.016,-47.363,51.758,-12.695,-83.496,NaN
0.020,-64.453,41.016,-0.488,-81.543,NaN
0.023,-71.777,33.203,1.953,-78.613,NaN
0.027,-67.383,30.762,0.000,-79.590,NaN
0.031,-69.336,37.598,2.441,-74.219,NaN
0.035,-67.871,33.203,1.953,-75.684,0
0.039,-65.430,33.203,-8.301,-79.102,0
0.043,-62.012,37.598,-4.395,-74.707,NaN
0.020,-64.941,45.898,-2.930,-78.125,NaN
0.024,-74.707,54.199,-8.301,-83.496,NaN
0.028,-83.984,46.387,-12.207,-87.402,NaN
0.032,-83.496,39.062,-12.695,-85.938,NaN
0.036,-78.613,40.039,-10.254,-84.473,NaN
0.040,-78.125,38.574,-12.695,-83.984,NaN
0.043,-79.102,33.691,-13.672,-81.543,0
0.047,-87.402,29.785,-10.742,-90.332,0
0.051,-87.402,26.855,0.488,-87.891,0
0.055,-85.449,19.043,15.137,-74.219,NaN
0.059,-86.426,8.789,19.043,-75.195,0
0.063,-79.102,13.184,18.066,-79.590,0
0.076,-80.566,23.438,19.531,-72.754,0
0.080,-88.379,17.090,15.625,-73.730,0
0.084,-82.031,15.625,8.301,-73.730,NaN
0.088,-79.590,22.949,3.906,-66.406,0
0.092,-82.520,13.672,-3.418,-76.172,0
0.096,-73.242,5.859,-7.812,-77.637,0
0.099,-69.336,6.348,0.488,-71.289,NaN
0.103,-73.730,25.391,10.742,-68.359,0
0.107,-76.172,38.086,15.137,-57.129,0
0.111,-80.078,30.762,23.438,-58.594,0
0.115,-85.449,31.738,21.484,-62.988,NaN
0.119,-83.008,33.203,12.207,-59.570,NaN
0.113,-69.336,32.227,2.930,-49.805,NaN
0.117,-68.848,25.879,-2.441,-49.805,0
0.121,-82.031,26.367,22.461,-52.246,0
0.125,-85.938,29.785,41.504,-60.547,0
0.129,-84.961,24.902,34.668,-61.523,NaN
0.133,-83.496,27.832,31.250,-55.176,0
0.136,-82.520,38.574,27.832,-59.082,NaN
0.140,-78.125,28.320,25.391,-62.500,0
0.144,-79.590,25.879,26.855,-68.848,0
0.148,-82.520,38.574,27.344,-68.848,0
0.152,-79.102,36.621,24.414,-62.012,NaN
0.156,-86.914,33.203,19.531,-72.266,0
0.169,-96.191,31.738,15.137,-84.961,0
0.173,-93.262,27.832,19.531,-76.660,0
0.177,-102.051,21.973,30.762,-68.848,NaN
0.181,-91.309,25.879,28.320,-61.523,0
0.185,-79.102,27.344,13.184,-57.617,0
0.189,-76.660,16.113,10.254,-56.152,0
0.192,-67.871,10.254,24.414,-55.176,0
0.196,-70.801,19.531,42.480,-59.570,NaN
0.200,-68.359,31.738,46.387,-62.988,0
0.204,-65.918,32.227,31.738,-63.965,0
0.208,-81.055,23.438,29.785,-66.406,0
0.212,-83.984,23.438,26.855,-69.336,NaN
0.207,-81.543,22.949,14.160,-66.406,NaN
0.211,-81.543,20.508,13.672,-61.035,NaN
0.215,-77.148,23.926,18.555,-57.129,0
0.219,-70.312,20.020,12.695,-50.781,0
0.223,-73.730,18.555,6.348,-47.852,0
0.227,-78.125,22.461,13.672,-46.387,0
0.230,-69.336,24.902,27.832,-39.551,NaN
0.234,-64.453,26.855,37.109,-29.785,0
0.238,-72.266,41.992,40.039,-37.598,0
0.242,-74.707,53.223,45.410,-42.969,0
0.246,-72.266,51.758,33.691,-41.016,0
0.250,-75.684,38.086,12.207,-48.340,0
0.263,-74.707,25.879,16.113,-46.387,0
0.267,-75.684,26.855,33.203,-52.734,0
0.271,-82.031,28.809,38.574,-65.430,0
0.275,-78.613,31.738,38.086,-65.918,NaN
0.279,-75.684,39.062,41.504,-68.848,0
0.283,-77.148,36.621,30.762,-73.730,0
0.286,-75.195,32.227,17.090,-77.148,0
0.290,-72.266,31.738,19.043,-77.637,0
0.294,-78.613,26.367,16.602,-75.684,0
0.298,-88.867,25.391,18.555,-79.590,NaN
0.302,-88.379,35.645,26.855,-81.055,NaN
0.306,-80.566,34.668,32.715,-75.195,NaN
0.300,-83.008,33.691,39.551,-69.824,0
0.304,-85.938,43.945,41.016,-74.707,0
0.308,-70.801,51.758,44.434,-73.730,0
0.312,-69.824,42.969,44.922,-75.195,0
0.316,-78.125,35.645,48.340,-72.266,NaN
0.320,-74.219,47.363,43.457,-66.406,0
0.323,-73.242,48.340,29.297,-80.078,0
0.327,-75.684,43.945,33.691,-89.355,NaN
0.331,-81.055,42.969,40.039,-92.773,0
0.335,-89.844,37.598,39.062,-86.914,0
0.339,-80.078,40.527,40.527,-71.777,0
0.343,-78.613,41.016,35.645,-80.078,0
0.356,-83.008,24.902,41.992,-81.055,0
0.360,-76.660,30.273,44.434,-79.590,0
0.364,-70.312,42.969,23.926,-83.008,0
0.368,-77.148,33.203,31.738,-82.520,NaN
0.372,-79.590,35.645,47.852,-81.055,0
0.376,-71.777,41.992,37.109,-78.125,0
0.379,-78.125,36.133,38.574,-81.543,0
0.383,-84.473,29.785,42.969,-86.426,0
0.387,-94.238,36.621,41.992,-92.285,0
0.391,-100.098,31.250,41.504,-91.309,NaN
0.395,-85.449,26.367,38.574,-84.961,NaN
0.399,-81.055,42.969,39.062,-72.754,NaN
0.394,-89.844,46.875,43.457,-66.895,0
0.398,-89.844,44.434,42.969,-77.148,0
0.402,-90.820,33.203,42.480,-77.148,0
0.406,-87.402,30.762,38.086,-76.172,0
0.410,-84.961,39.062,27.344,-80.078,NaN
0.414,-80.566,40.527,20.020,-78.125,0
0.417,-84.473,36.133,14.160,-71.289,0
0.421,-100.098,33.203,19.043,-81.055,0
0.425,-97.656,29.297,30.273,-93.750,0
0.429,-82.031,23.926,35.156,-84.473,NaN
0.433,-73.730,32.715,27.832,-69.336,NaN
0.437,-84.961,31.738,16.602,-72.754,NaN
0.433,-88.867,31.250,23.438,-80.078,0
0.437,-95.215,35.645,40.039,-83.496,0
0.441,-98.633,25.879,46.387,-85.449,0
0.445,-90.332,26.367,43.457,-86.426,0
0.449,-89.355,36.621,35.156,-91.309,NaN
0.453,-85.449,37.598,31.250,-95.215,0
0.456,-86.426,16.113,33.203,-92.285,0
0.460,-86.426,17.578,30.273,-74.707,0
0.464,-86.914,40.039,22.461,-74.707,0
0.468,-89.844,43.457,13.184,-89.355,0
0.472,-76.172,52.246,10.742,-82.031,NaN
0.476,-70.312,49.805,12.695,-76.172,0
0.489,-69.336,37.598,19.043,-70.801,0
0.493,-76.172,36.621,23.926,-72.754,0
0.497,-83.008,37.109,28.320,-83.496,NaN
0.501,-78.613,37.109,36.621,-77.148,0
0.505,-75.195,34.180,22.949,-69.336,0
0.509,-77.637,29.297,-4.395,-70.801,NaN
0.512,-83.984,27.344,-8.789,-74.707,0
0.516,-83.008,36.621,9.277,-71.777,0
0.520,-84.473,52.246,29.297,-79.102,NaN
0.524,-85.449,55.664,33.203,-89.355,0
0.528,-82.520,56.641,27.344,-85.938,0
0.532,-85.449,51.270,22.949,-94.238,0
0.544,-87.402,48.340,11.719,-96.191,0
0.548,-85.938,36.621,3.906,-87.402,0
0.552,-82.520,25.879,-1.953,-84.473,0
0.556,-80.078,45.898,0.488,-78.613,0
0.560,-81.543,58.105,14.160,-83.008,0
0.564,-73.730,57.129,21.973,-78.613,NaN
0.567,-72.266,42.969,15.625,-77.637,0
0.571,-75.195,38.086,18.066,-80.078,0
0.575,-63.477,42.969,33.203,-67.871,0
0.579,-63.477,39.551,33.203,-71.777,0
0.583,-74.219,57.617,15.625,-77.637,NaN
0.587,-80.566,62.012,4.883,-76.172,NaN
0.582,-79.590,54.688,15.625,-67.383,NaN
0.586,-81.055,47.363,21.973,-68.848,0
0.590,-87.402,43.945,19.043,-70.312,0
0.594,-85.938,41.504,16.113,-74.219,0
0.598,-80.078,40.039,10.742,-77.637,0
0.602,-70.801,47.852,-1.953,-79.102,NaN
0.605,-61.035,49.316,0.977,-78.125,0
0.609,-63.965,39.551,19.531,-83.008,0
0.613,-71.289,34.180,23.926,-86.426,0
0.617,-70.312,21.973,27.832,-73.730,0
0.621,-74.707,17.090,30.273,-56.152,0
0.625,-79.590,35.156,18.555,-64.453,0
0.638,-83.496,30.273,17.578,-77.148,0
0.642,-88.379,26.367,27.344,-72.266,0
0.646,-84.473,36.133,17.090,-73.242,0
0.650,-83.984,36.133,14.648,-67.383,0
0.654,-87.891,26.367,19.043,-64.453,NaN
0.658,-86.914,26.367,6.836,-60.547,0
0.661,-79.102,25.879,12.695,-52.734,0
0.665,-77.148,17.578,22.949,-44.922,0
0.669,-81.543,25.391,18.555,-42.969,0
0.673,-71.289,31.738,26.367,-43.457,NaN
0.677,-70.801,24.902,27.832,-46.387,NaN
0.681,-87.891,18.555,12.207,-60.059,NaN
0.676,-88.867,30.762,21.484,-65.918,0
0.680,-92.285,36.133,21.484,-68.848,0
0.684,-93.262,34.180,20.020,-71.289,0
0.688,-79.102,33.203,31.250,-63.965,NaN
0.692,-73.242,29.297,22.949,-57.129,0
0.696,-83.496,34.668,12.695,-62.988,0
0.699,-92.285,33.691,20.020,-72.754,NaN
0.703,-94.238,34.668,19.043,-78.125,0
0.707,-90.820,34.668,11.719,-72.266,0
0.711,-92.285,32.227,5.859,-68.848,0
0.715,-81.543,33.203,-3.418,-60.059,0
0.719,-76.172,35.645,3.418,-63.965,0
0.732,-79.590,35.156,7.324,-77.148,0
0.736,-69.336,38.574,6.836,-73.730,0
0.740,-70.801,33.691,-1.953,-69.336,0
0.744,-76.172,21.484,-14.160,-59.570,NaN
0.748,-77.637,20.020,-5.371,-52.734,0
0.752,-79.102,37.598,2.441,-62.500,0
0.755,-73.242,48.340,-2.441,-60.059,0
0.759,-67.871,40.527,8.789,-49.805,0
0.763,-69.336,37.598,18.555,-52.246,0
0.767,-65.918,41.992,17.090,-56.641,NaN
0.771,-57.617,45.410,5.859,-54.688,NaN
0.775,-60.059,40.527,0.000,-54.688,NaN
0.769,-61.035,35.156,8.301,-51.758,0
0.773,-67.383,37.598,8.789,-53.223,0
0.777,-74.219,34.668,6.836,-47.852,0
0.781,-68.359,22.461,7.812,-48.828,NaN
0.785,-64.453,22.461,10.254,-55.664,0
0.789,-61.523,31.738,3.906,-57.129,0
0.792,-60.059,21.484,7.324,-53.223,0
0.796,-63.965,6.348,31.250,-49.316,0
0.800,-62.988,8.301,41.992,-48.340,NaN
0.804,-61.523,19.531,33.691,-54.688,0
0.808,-63.965,29.297,25.879,-48.828,0
0.812,-70.312,25.391,28.320,-43.457,0
0.825,-76.660,36.621,29.297,-51.758,0
0.829,-77.637,42.480,31.738,-51.270,NaN
0.833,-85.449,29.785,30.273,-57.129,0
0.837,-91.797,27.344,21.973,-63.965,0
0.841,-82.031,25.879,18.555,-55.176,0
0.845,-67.383,10.254,15.137,-48.340,0
0.848,-58.594,0.488,13.184,-46.875,NaN
0.852,-57.129,5.371,25.879,-29.297,0
0.856,-53.711,8.301,22.949,-26.367,0
0.860,-51.758,20.508,16.602,-37.598,0
0.864,-51.758,22.461,36.621,-33.203,0
0.868,-56.152,18.555,44.922,-38.574,NaN
0.863,-63.477,22.461,23.926,-48.828,NaN
0.867,-62.500,18.555,18.555,-43.457,NaN
0.871,-62.012,17.578,30.273,-42.480,0
0.875,-53.223,23.438,32.227,-47.363,0
0.879,-50.781,16.602,36.621,-47.852,0
0.883,-54.199,1.953,48.828,-47.363,NaN
0.886,-56.152,12.695,41.504,-50.781,NaN
0.890,-52.734,30.762,31.738,-45.898,0
0.894,-41.992,18.066,22.461,-36.133,0
0.898,-30.762,12.207,11.230,-29.785,0
0.902,-33.203,24.902,25.391,-6.836,0
0.906,-45.898,31.250,43.945,0.000,0
0.919,-46.875,38.574,44.922,-7.812,0
0.923,-32.227,35.645,42.480,-4.395,0
0.927,-21.484,21.973,46.387,0.488,NaN
0.931,-25.879,21.484,44.922,0.977,0
0.935,-20.996,35.156,51.270,-5.371,0
0.939,-13.184,43.457,62.012,2.930,0
0.942,-19.043,45.410,40.039,9.277,0
0.946,-12.695,38.574,13.672,24.414,0
0.950,-13.672,34.668,35.156,25.391,0
0.954,-33.691,31.250,56.641,4.395,NaN
0.958,-38.574,27.832,51.270,-1.465,NaN
0.962,-34.668,27.832,40.039,-2.930,0
0.957,-41.504,19.043,37.109,-2.930,0
0.961,-45.898,16.113,46.875,0.977,NaN
0.965,-41.504,16.602,52.246,-12.207,NaN
0.969,-42.480,13.184,54.199,-16.113,0
0.973,-44.922,10.742,48.828,-10.254,0
0.977,-46.875,10.254,39.062,-23.438,0
0.980,-38.086,10.742,44.434,-22.461,0
0.984,-34.180,13.184,47.852,-17.578,0
0.988,-42.480,7.324,47.852,-30.273,NaN
0.992,-51.758,0.488,47.852,-37.598,0
0.996,-54.199,6.348,36.621,-33.691,0
1.000,-47.852,12.695,30.762,-33.691,0
1.013,-53.223,-0.977,26.367,-32.715,0
1.017,-52.734,8.789,32.715,-32.715,0
1.021,-46.875,22.949,35.156,-40.527,NaN
1.025,-51.270,17.090,18.555,-33.691,0
1.029,-54.199,26.367,21.973,-19.531,0
1.033,-57.617,24.414,38.574,-27.832,0
1.036,-59.082,9.277,41.016,-38.086,0
1.040,-62.500,12.695,36.133,-31.250,NaN
1.044,-65.918,17.090,27.832,-32.227,0
1.048,-48.340,15.625,31.738,-39.062,0
1.052,-36.133,25.391,35.645,-28.809,0
1.056,-36.621,20.020,12.207,-26.855,NaN
1.050,-35.156,16.602,20.508,-27.832,NaN
1.054,-35.156,26.855,35.156,-20.020,NaN
1.058,-40.039,33.203,22.949,-20.020,0
1.062,-41.016,30.762,33.691,-21.973,0
1.066,-34.180,20.996,46.875,-16.602,NaN
1.070,-40.039,26.367,33.691,-25.391,0
1.073,-43.945,29.785,32.227,-34.180,NaN
1.077,-42.480,24.902,33.691,-26.855,0
1.081,-46.387,26.367,13.672,-21.484,0
1.085,-45.410,17.090,6.836,-27.344,0
1.089,-44.434,10.742,15.625,-24.902,NaN
1.093,-46.387,12.207,22.949,-22.949,0
1.107,-54.688,6.836,20.996,-37.109,0
1.111,-58.594,13.672,22.949,-34.668,0
1.115,-52.246,19.043,30.762,-35.645,0
1.119,-52.246,13.672,27.832,-41.504,0
1.123,-55.176,11.719,9.766,-45.898,0
1.127,-58.594,8.789,-4.883,-44.434,NaN
1.130,-58.594,1.465,-8.301,-38.574,0
1.134,-47.852,-7.324,-1.465,-35.645,0
1.138,-51.758,4.883,9.766,-48.828,0
1.142,-61.035,18.555,20.996,-50.781,NaN
1.146,-61.035,15.625,29.785,-38.574,NaN
1.150,-56.641,18.555,22.461,-43.945,NaN
1.145,-49.316,21.484,26.855,-29.297,0
1.149,-46.387,22.461,41.504,-19.043,0
1.153,-51.270,20.508,33.203,-31.250,0
1.157,-47.363,12.695,20.996,-37.109,NaN
1.161,-54.688,13.184,23.926,-41.504,0
1.165,-65.918,18.066,32.715,-50.781,0
1.168,-73.242,15.625,23.438,-65.918,0
1.172,-88.867,23.926,11.230,-84.473,0
1.176,-99.609,34.668,14.648,-97.656,NaN
1.180,-116.699,27.832,15.137,-113.281,0
1.184,-134.766,22.461,1.465,-128.418,0
1.188,-151.367,26.855,-3.906,-154.785,0
1.201,-158.691,32.715,12.695,-169.434,0
1.205,-165.039,33.203,28.809,-171.875,0
1.209,-169.922,46.875,33.203,-172.852,0
1.213,-169.922,54.199,40.527,-171.387,0
1.217,-164.551,52.734,43.457,-174.316,0
1.221,-149.414,42.480,40.039,-156.250,NaN
1.224,-130.859,20.508,30.273,-130.859,0
1.228,-131.348,13.184,2.930,-118.164,0
1.232,-113.281,4.395,-4.395,-106.445,0
1.236,-87.402,-2.441,19.531,-93.750,NaN
1.240,-91.797,4.395,20.996,-91.797,NaN
1.244,-79.590,6.348,12.207,-84.473,NaN
1.238,-72.754,3.906,0.977,-73.242,0
1.242,-71.777,-6.348,-2.441,-63.965,0
1.246,-54.688,-9.277,1.465,-51.270,0
1.250,-44.434,0.000,-4.395,-45.410,NaN
1.254,-39.062,-4.395,-0.977,-33.203,0
1.258,-36.133,5.371,-2.930,-29.297,NaN
1.261,-37.109,3.906,-12.207,-35.645,0
1.265,-35.156,3.906,-14.648,-36.133,0
1.269,-23.926,3.906,-13.672,-27.344,0
1.273,-18.066,7.324,-1.953,-22.949,NaN
1.277,-23.438,19.531,2.930,-10.254,0
1.281,-16.113,9.277,-3.418,-4.395,0
1.294,-11.230,0.977,-13.184,-10.254,0
1.298,-12.695,0.488,-8.301,-6.836,0
1.302,-12.207,2.930,0.000,-4.883,0
1.306,-22.949,11.230,-3.418,-6.836,NaN
1.310,-29.297,14.648,-5.371,-6.836,0
1.314,-13.672,13.672,-12.695,-0.977,0
1.317,-10.254,5.859,-30.273,-3.906,0
1.321,-17.090,-0.488,-14.160,-3.418,0
1.325,-14.648,1.465,14.648,4.395,0
1.329,-15.625,7.324,18.555,2.930,NaN
1.333,-16.113,6.836,16.602,3.906,NaN
1.337,-17.090,6.348,6.348,0.000,NaN
1.332,-28.809,10.254,-5.859,-3.906,0
1.336,-32.715,-2.930,-12.695,-9.277,0
1.340,-34.668,-14.648,-15.137,-12.207,0
1.344,-43.457,-9.277,-20.508,-17.578,NaN
1.348,-48.828,-6.836,-19.531,-25.391,0
1.352,-41.992,-2.441,-14.648,-24.902,0
1.355,-32.715,7.324,-10.742,-25.391,0
1.359,-36.133,10.742,-6.836,-27.832,0
1.363,-42.480,1.465,-6.348,-26.855,NaN
1.367,-47.852,-1.953,-1.953,-17.090,0
1.371,-55.664,-3.906,8.789,-12.695,0
1.375,-52.734,0.488,9.766,-23.438,NaN
1.370,-44.434,-6.348,-4.883,-22.461,NaN
1.374,-40.527,-13.184,-25.391,-14.648,NaN
1.378,-36.133,5.859,-31.250,-9.766,0
1.382,-35.645,14.648,-22.461,-6.348,0
1.386,-38.574,7.812,-10.254,-14.160,0
1.390,-43.945,0.488,4.395,-26.855,0
1.393,-52.246,2.441,0.000,-35.645,0
1.397,-48.340,3.906,0.000,-23.438,NaN
1.401,-48.828,-0.977,-11.230,-21.484,0
1.405,-52.734,-11.719,-27.344,-35.156,0
1.409,-47.363,-8.789,-20.996,-41.504,0
1.413,-42.969,0.488,-20.020,-43.457,0
1.425,-34.180,-1.465,-13.672,-40.039,0
1.429,-41.016,-1.465,-15.137,-48.828,0
1.433,-52.246,-13.184,-13.184,-45.898,0
1.437,-47.852,-11.230,-6.348,-41.016,NaN
1.441,-48.828,0.000,-3.906,-38.574,0
1.445,-57.617,-5.371,-4.883,-26.855,0
1.448,-66.895,-12.207,-17.578,-19.043,0
1.452,-69.824,-16.113,-22.949,-19.531,0
1.456,-66.406,-16.113,-16.602,-26.855,NaN
1.460,-59.570,-14.160,-16.113,-28.320,0
1.464,-54.199,-2.930,-21.973,-20.020,0
1.468,-58.594,11.230,-19.043,-22.949,0
1.482,-56.152,15.137,-7.812,-25.879,0
1.486,-42.969,6.836,-7.324,-28.809,0
1.490,-42.969,3.906,-20.996,-28.320,0
1.494,-44.434,8.789,-24.902,-20.996,NaN
1.498,-49.805,7.812,-15.137,-18.555,0
1.502,-48.340,1.953,-15.137,-11.719,0
1.505,-39.551,-10.254,-21.973,-8.789,0
1.509,-34.668,-6.836,-13.672,-15.137,0
1.513,-30.762,9.277,-2.930,-17.090,0
1.517,-29.785,9.766,-7.324,-23.438,NaN
1.521,-34.180,0.000,-11.230,-29.297,NaN
1.525,-41.016,-12.207,-16.113,-38.574,NaN
1.519,-39.062,-25.391,-25.391,-48.828,0
1.523,-30.762,-18.555,-30.762,-44.434,0
1.527,-30.762,-5.371,-23.926,-35.645,0
1.531,-45.898,0.488,-19.043,-37.598,NaN
1.535,-35.645,0.977,-18.066,-42.969,0
1.539,-25.879,-11.719,-10.742,-47.852,0
1.542,-40.039,-11.719,-1.465,-51.270,0
1.546,-44.434,-1.465,-14.160,-50.781,0
1.550,-35.156,-6.836,-20.020,-43.457,NaN
1.554,-29.785,-13.184,-10.742,-31.250,0
1.558,-29.785,0.977,-17.578,-28.320,NaN
1.562,-24.902,12.207,-18.066,-25.391,0
1.558,-26.855,2.441,-11.230,-27.344,0
1.562,-35.645,-6.348,-14.648,-34.668,NaN
1.566,-35.156,-13.672,-33.691,-31.250,0
1.570,-23.438,-25.879,-25.391,-25.879,NaN
1.574,-19.531,-22.461,2.930,-21.484,0
1.578,-35.156,2.930,6.836,-17.578,0
1.581,-44.922,10.254,-13.184,-26.367,0
1.585,-39.551,1.953,-22.949,-27.344,0
1.589,-40.039,-14.160,-15.625,-35.156,0
1.593,-43.945,-19.531,-16.602,-44.922,0
1.597,-45.410,-7.812,-25.391,-32.227,NaN
1.601,-44.434,-9.766,-34.180,-28.320,0
1.614,-45.410,-7.324,-20.996,-36.133,0
1.618,-46.387,0.000,-5.371,-33.203,0
1.622,-45.898,-9.277,-10.254,-29.785,0
1.626,-44.434,-12.695,-13.672,-36.621,NaN
1.630,-48.340,-9.766,-4.395,-34.668,0
1.634,-42.969,-15.625,-3.418,-24.902,0
1.637,-41.016,-13.672,-13.672,-24.902,NaN
1.641,-51.270,-11.230,-9.277,-25.879,0
1.645,-53.711,-15.625,-1.953,-26.367,0
1.649,-54.199,-17.578,-7.812,-24.414,0
1.653,-56.641,-23.926,-10.742,-16.113,NaN
1.657,-57.129,-29.297,-7.812,-15.625,0
1.669,-55.176,-25.879,-13.672,-15.137,0
1.673,-46.875,-19.531,-11.719,-5.371,0
1.677,-45.898,-18.555,-3.906,0.977,0
1.681,-45.898,-21.484,-10.254,-3.906,0
1.685,-50.293,-18.066,-21.484,-18.066,0
1.689,-58.594,-11.719,-12.695,-17.578,0
1.692,-60.059,-7.812,-0.488,-12.207,NaN
1.696,-57.129,-8.789,0.977,-6.836,0
1.700,-50.781,-11.230,7.324,-1.953,0
1.704,-54.199,-16.602,10.742,-12.695,0
1.708,-54.688,-23.438,-3.418,-21.484,NaN
1.712,-57.129,-28.809,-25.879,-21.484,NaN
1.707,-55.664,-16.113,-23.438,-24.414,NaN
1.711,-43.457,-15.625,-4.883,-20.020,0
1.715,-43.945,-15.137,-3.906,-16.602,0
1.719,-48.828,-3.418,-4.883,-15.137,0
1.723,-45.898,-3.418,-4.883,-9.277,NaN
1.727,-46.387,-4.883,-1.465,-14.160,0
1.730,-46.875,-14.648,-6.836,-20.996,0
1.734,-42.969,-25.391,-20.508,-17.090,0
1.738,-42.480,-21.973,-24.902,-18.555,0
1.742,-31.738,-26.367,-22.949,-3.906,0
1.746,-15.625,-38.574,-13.184,30.762,NaN
1.750,-41.016,-32.715,-9.766,7.324,0
1.763,-70.312,-21.484,-16.602,-22.461,0
1.767,-72.266,-12.695,-21.973,-16.113,0
1.771,-61.035,-6.348,-22.461,-18.066,NaN
1.775,-54.199,-8.789,-23.926,-18.555,0
1.779,-57.617,-11.719,-34.180,-13.672,0
1.783,-53.223,-10.742,-42.480,-17.090,0
1.786,-56.152,-18.066,-38.086,-20.508,0
1.790,-50.293,-6.348,-34.180,-10.254,NaN
1.794,-54.688,14.648,-36.621,-22.461,0
1.798,-58.105,6.348,-48.340,-31.738,0
1.802,-58.594,3.906,-46.875,-36.621,0
1.806,-59.082,7.324,-34.668,-39.062,NaN
1.800,-43.945,-5.371,-34.180,-26.367,NaN
1.804,-42.480,-8.301,-41.504,-26.855,NaN
1.808,-48.340,-4.883,-43.457,-29.297,0
1.812,-49.805,-8.789,-31.250,-30.273,0
1.816,-45.410,-8.789,-34.180,-31.250,NaN
1.820,-41.016,-12.695,-42.480,-24.414,0
1.823,-41.016,-17.578,-28.320,-22.461,0
1.827,-44.434,-17.578,-21.484,-20.996,0
1.831,-40.527,-19.531,-33.691,-12.695,NaN
1.835,-35.645,-12.695,-33.691,-6.836,0
1.839,-38.086,-13.184,-28.809,-4.883,0
1.843,-38.574,-18.066,-43.945,-13.184,0
1.839,-31.738,-13.672,-37.598,-14.648,NaN
1.843,-33.203,-29.785,-31.738,-10.742,NaN
1.847,-40.039,-27.344,-30.762,-8.301,NaN
1.851,-41.016,-11.230,-16.602,-7.812,0
1.855,-44.922,-21.484,-23.926,-11.230,0
1.859,-44.434,-32.227,-20.508,-12.207,NaN
1.862,-47.852,-24.902,-10.742,-10.254,0
1.866,-55.176,-7.812,-13.672,-2.930,0
1.870,-55.176,-2.930,-6.348,-0.488,0
1.874,-41.504,-4.395,-5.371,-0.488,0
1.878,-44.434,-5.371,-15.137,5.371,NaN
1.882,-49.316,-13.672,-26.367,5.371,0
1.894,-43.457,-25.879,-28.320,-2.441,0
1.898,-37.598,-31.738,-19.043,-1.953,NaN
1.902,-36.621,-25.879,-15.625,-1.465,0
1.906,-45.410,-25.391,-21.484,-7.324,0
1.910,-39.062,-31.738,-25.391,-4.395,0
1.914,-32.227,-30.762,-19.043,-3.418,0
1.917,-38.574,-31.250,-9.277,-9.277,NaN
1.921,-35.156,-38.086,-1.953,-13.184,0
1.925,-27.344,-41.992,1.465,-19.531,0
1.929,-27.832,-38.086,0.000,-16.602,0
1.933,-23.438,-36.621,2.930,-3.418,0
1.937,-20.508,-39.062,2.441,-11.719,0
1.950,-21.973,-24.902,-4.395,-23.926,0
1.954,-26.367,-18.555,-11.230,-23.926,NaN
1.958,-21.973,-21.484,-15.625,-14.648,0
1.962,-9.766,-16.113,-10.254,-0.977,0
1.966,-12.207,-37.109,-6.836,-1.953,0
1.970,-20.996,-44.922,-4.883,-0.977,0
1.973,-26.855,-32.715,-2.441,-1.465,NaN
1.977,-19.531,-28.320,-17.090,-1.953,0
1.981,-16.602,-32.227,-26.855,-6.836,0
1.985,-13.184,-36.133,-19.043,-22.949,0
1.989,-16.113,-27.832,-7.324,-17.578,0
1.993,-26.367,-26.855,-9.277,-16.602,NaN
1.988,-13.672,-36.133,-8.789,-13.672,NaN
1.992,-8.301,-41.504,-8.789,-6.836,NaN
1.996,-19.043,-33.203,-22.949,-12.207,0
2.000,-20.508,-36.133,-24.414,-10.254,0
2.004,-20.020,-38.574,-20.996,-3.906,0
2.008,-25.391,-34.668,-34.180,-12.695,NaN
2.011,-23.438,-40.039,-27.344,-17.578,NaN
2.015,-20.508,-42.969,-6.836,-15.137,0
2.019,-23.438,-38.086,-6.348,-17.578,0
2.023,-15.625,-37.109,-9.277,-10.254,0
2.027,-11.230,-35.645,-9.277,-14.160,NaN
2.031,-28.809,-24.902,-19.531,-29.297,NaN
2.027,-34.668,-35.645,-21.484,-36.621,NaN
2.031,-26.367,-38.086,-14.648,-35.645,0
2.035,-33.691,-30.273,-16.602,-27.344,0
2.039,-42.969,-41.016,-22.461,-25.391,0
2.043,-44.922,-46.875,-30.273,-27.832,NaN
2.047,-33.203,-49.316,-29.297,-26.367,0
2.050,-27.344,-36.133,-23.926,-30.273,0
2.054,-35.645,-9.277,-29.297,-31.738,0
2.058,-36.133,-20.996,-35.645,-27.832,NaN
2.062,-31.250,-34.180,-32.715,-29.297,0
2.066,-34.668,-21.484,-20.020,-30.762,0
2.070,-41.992,-30.273,-8.789,-40.039,0
2.083,-38.574,-39.551,-13.184,-37.598,0
2.087,-33.691,-44.434,-23.926,-25.391,0
2.091,-34.180,-59.082,-24.902,-27.832,0
2.095,-24.414,-40.039,-24.414,-23.926,0
2.099,-16.602,-16.602,-34.668,-14.160,0
2.103,-21.973,-25.391,-33.691,-10.742,NaN
2.106,-18.555,-37.109,-24.902,0.000,0
2.110,-26.367,-39.062,-22.461,-11.230,0
2.114,-49.805,-30.273,-24.902,-32.227,0
2.118,-40.039,-32.715,-14.160,-20.020,0
2.122,-23.926,-35.645,-9.766,-7.324,0
2.126,-29.785,-32.715,-24.902,-23.438,0
2.138,-31.250,-29.297,-31.250,-26.855,0
2.142,-26.367,-39.062,-33.203,-16.602,0
2.146,-23.926,-42.969,-34.180,-10.742,0
2.150,-20.508,-40.527,-30.273,-8.789,NaN
2.154,-18.066,-38.574,-31.738,-5.371,0
2.158,-33.691,-25.879,-50.781,-9.277,0
2.161,-29.785,-23.438,-49.316,-13.672,0
2.165,-24.414,-18.066,-29.785,-14.160,0
2.169,-25.879,-15.137,-21.484,-19.531,NaN
2.173,-31.738,-21.973,-18.066,-19.043,0
2.177,-41.992,-24.902,-25.391,-13.672,NaN
2.181,-29.785,-21.484,-30.273,-14.160,0
2.176,-18.066,-30.273,-22.949,-13.184,0
2.180,-27.832,-26.367,-23.438,-20.508,NaN
2.184,-26.855,-12.207,-27.832,-21.484,NaN
2.188,-20.996,-21.484,-32.227,-21.484,0
2.192,-23.926,-22.949,-34.668,-24.902,0
2.196,-27.832,-13.184,-43.457,-13.672,NaN
2.199,-37.109,-12.207,-42.969,-6.348,0
2.203,-32.715,-13.672,-22.949,3.418,0
2.207,-18.066,-13.184,-12.207,9.277,NaN
2.211,-15.137,-16.113,-3.906,9.277,0
2.215,-18.066,-19.531,-2.441,19.531,0
2.219,-14.648,-16.602,-17.578,17.090,0
2.231,-16.113,-17.090,-27.832,-2.930,0
2.235,-27.344,-16.113,-24.414,-5.859,0
2.239,-32.715,-14.648,-23.926,-5.371,0
2.243,-25.391,-23.926,-35.156,-10.742,NaN
2.247,-20.508,-21.484,-41.992,-2.930,0
2.251,-25.391,-5.371,-31.738,-10.254,0
2.254,-26.367,2.441,-16.113,-20.020,0
2.258,-23.438,-16.113,-16.113,-8.789,0
2.262,-24.414,-24.902,-28.320,-11.230,0
2.266,-27.832,-8.301,-37.109,-30.762,NaN
2.270,-30.762,-2.930,-38.086,-33.203,NaN
2.274,-33.203,-5.859,-33.203,-20.020,NaN
2.269,-28.320,-3.418,-33.691,-17.090,0
2.273,-19.043,-1.465,-33.203,-27.344,0
2.277,-10.742,-9.277,-31.250,-25.879,0
2.281,-15.625,-16.113,-36.621,-20.020,0
2.285,-32.227,-25.879,-37.109,-21.484,NaN
2.289,-41.504,-17.578,-28.809,-22.949,0
2.292,-38.574,-6.836,-28.320,-25.879,0
2.296,-34.180,-25.391,-35.645,-26.855,0
2.300,-24.902,-18.066,-51.758,-21.484,0
2.304,-6.836,-7.324,-58.105,-2.930,NaN
2.308,-4.395,-19.531,-38.086,11.230,0
2.312,-30.273,-18.066,-27.344,-15.137,0
2.326,-35.156,-7.812,-22.461,-29.785,0
2.330,-21.973,-9.277,-20.020,-17.578,0
2.334,-20.508,-21.484,-28.320,-6.836,0
2.338,-27.344,-27.832,-38.574,-12.207,NaN
2.342,-30.273,-32.227,-33.691,-22.461,0
2.346,-29.297,-42.480,-21.484,-23.926,0
2.349,-44.922,-45.410,-20.020,-31.250,0
2.353,-55.176,-41.992,-12.695,-29.297,0
2.357,-47.852,-40.039,-2.441,-23.438,NaN
2.361,-45.410,-44.434,-10.742,-23.926,0
2.365,-44.922,-46.875,-24.902,-23.438,0
2.369,-41.504,-42.480,-20.996,-26.367,0
2.363,-43.457,-46.387,-14.160,-27.832,NaN
2.367,-44.434,-59.570,-5.859,-24.902,NaN
2.371,-34.180,-59.082,-11.719,-19.531,NaN
2.375,-39.551,-44.434,-18.555,-20.020,0
2.379,-48.340,-31.738,-18.555,-19.043,0
2.383,-50.293,-25.391,-32.227,-19.043,0
2.386,-55.664,-25.879,-35.645,-25.879,NaN
2.390,-53.223,-27.832,-23.438,-30.273,0
2.394,-41.504,-40.039,-15.625,-25.879,NaN
2.398,-38.086,-50.293,-20.020,-13.672,0
2.402,-45.410,-37.598,-25.391,1.953,0
2.406,-42.480,-32.227,-23.438,1.465,0
2.419,-31.738,-38.086,-22.461,-15.625,0
2.423,-22.461,-32.227,-13.672,-21.484,0
2.427,-26.855,-34.180,-8.301,-22.949,0
2.431,-30.273,-34.180,-16.602,-23.438,0
2.435,-23.926,-24.902,-22.949,-23.926,0
2.439,-23.926,-30.762,-27.832,-27.344,0
2.442,-25.879,-35.156,-38.086,-28.320,NaN
2.446,-22.949,-36.133,-36.133,-15.625,0
2.450,-19.043,-42.480,-26.367,-13.672,0
2.454,-22.461,-36.133,-26.367,-19.531,0
2.458,-25.879,-32.715,-31.250,-20.996,NaN
2.462,-24.414,-42.969,-29.297,-25.879,NaN
2.456,-27.344,-46.875,-19.531,-21.484,NaN
2.460,-31.250,-42.480,-13.184,-15.625,0
2.464,-21.484,-37.109,-10.742,-24.414,0
2.468,-15.137,-43.457,-17.578,-19.043,NaN
2.472,-16.602,-36.621,-25.879,-5.371,0
2.476,-20.020,-25.391,-26.855,-12.207,0
2.479,-17.090,-32.227,-20.020,-6.348,0
2.483,-14.160,-36.621,-16.113,-4.883,0
2.487,-22.949,-42.969,-24.902,-13.672,NaN
2.491,-20.996,-51.270,-29.297,-8.789,0
2.495,-19.043,-42.969,-21.973,-2.441,NaN
2.499,-26.367,-38.086,-18.066,-1.953,0
2.495,-25.391,-45.410,-14.648,-11.230,0
2.499,-26.367,-52.246,-23.438,-16.602,NaN
2.503,-33.691,-43.945,-25.391,-14.648,NaN
2.507,-35.156,-36.621,-13.184,-16.113,0
2.511,-33.203,-44.434,-22.461,-15.625,0
2.515,-32.715,-48.828,-40.527,-11.719,0
2.518,-28.320,-41.992,-39.551,-12.207,0
2.522,-29.297,-40.039,-29.785,0.000,0
2.526,-39.551,-43.945,-20.020,2.441,NaN
2.530,-39.551,-42.480,-4.883,0.000,0
2.534,-29.297,-42.480,-5.371,10.254,0
2.538,-24.902,-42.969,-16.602,6.836,0
2.552,-29.785,-41.992,-14.160,1.953,0
2.556,-35.645,-51.758,-20.508,-7.324,0
2.560,-38.086,-51.758,-31.250,-13.184,NaN
2.564,-37.109,-31.738,-32.227,-17.578,0
2.568,-40.039,-31.250,-22.461,-16.113,0
2.572,-40.039,-29.785,-8.789,-17.090,NaN
2.575,-35.645,-27.832,-5.859,-26.367,0
2.579,-30.762,-37.109,-13.672,-21.973,0
2.583,-24.902,-38.574,-21.973,-20.996,NaN
2.587,-23.926,-41.016,-16.602,-24.902,0
2.591,-28.320,-48.340,-7.812,-11.719,0
2.595,-26.367,-37.598,-7.812,-25.391,0
2.606,-15.137,-24.414,-28.809,-24.414,0
2.610,-10.742,-41.992,-34.180,0.977,NaN
2.614,-36.621,-43.457,-24.414,-14.160,0
2.618,-41.016,-23.926,-17.578,-20.996,0
2.622,-34.668,-21.973,-4.883,-14.648,0
2.626,-30.762,-33.691,0.000,-9.277,0
2.629,-28.320,-46.875,0.977,-0.977,NaN
2.633,-39.062,-41.016,-0.488,3.906,0
2.637,-37.598,-42.480,-7.812,15.137,0
2.641,-39.551,-49.805,-16.113,13.184,0
2.645,-30.273,-29.785,-16.602,2.441,0
2.649,-12.695,-20.996,-14.160,0.488,0
2.644,-26.855,-25.391,-11.719,-7.812,NaN
2.648,-39.551,-25.391,-17.090,-17.578,NaN
2.652,-32.715,-23.438,-16.113,-19.531,NaN
2.656,-29.297,-26.855,-14.160,-19.531,0
2.660,-32.227,-38.086,-22.461,-20.996,0
2.664,-36.133,-35.645,-25.391,-26.855,0
2.667,-36.133,-24.902,-33.203,-20.508,NaN
2.671,-29.297,-29.785,-26.855,-12.207,0
2.675,-28.320,-38.086,-11.719,-16.113,0
2.679,-31.738,-41.504,-17.578,-22.949,0
2.683,-32.715,-40.527,-14.648,-19.531,0
2.687,-35.156,-28.809,-12.207,-20.020,0
2.700,-34.180,-16.113,-13.184,-28.809,0
2.704,-32.227,-14.160,-17.578,-21.484,0
2.708,-37.109,-23.438,-25.391,-18.555,0
2.712,-31.738,-25.879,-22.461,-31.250,0
2.716,-28.809,-28.320,-19.043,-31.250,0
2.720,-36.133,-20.508,-27.344,-31.738,NaN
2.723,-36.133,-15.137,-32.715,-33.691,0
2.727,-40.527,-16.602,-27.832,-22.949,0
2.731,-40.527,-15.625,-21.484,-18.066,0
2.735,-34.668,-21.484,-14.648,-21.484,NaN
2.739,-23.926,-37.109,-8.789,-5.371,NaN
2.743,-12.695,-40.039,-19.043,2.930,NaN
2.738,-30.762,-18.555,-19.043,-15.625,0
2.742,-44.434,-6.836,-2.441,-30.273,0
2.746,-33.691,-2.441,-6.348,-30.762,0
2.750,-28.320,3.906,-18.555,-30.273,NaN
2.754,-25.391,4.395,-27.832,-34.668,0
2.758,-20.020,-3.418,-36.133,-31.250,0
2.761,-10.742,0.977,-40.527,-29.785,NaN
2.765,-14.648,2.441,-36.621,-33.691,0
2.769,-24.414,2.441,-40.039,-35.645,0
2.773,-13.672,9.277,-42.969,-29.297,NaN
2.777,-18.555,2.930,-41.992,-23.926,0
2.781,-16.113,10.254,-40.527,-27.832,0
2.794,-6.836,20.020,-41.504,-28.320,0
2.798,-9.766,13.184,-41.016,-23.926,0
2.802,-17.578,11.719,-36.621,-21.973,0
2.806,-15.137,17.578,-29.297,-24.414,0
2.810,-5.859,17.578,-35.645,-28.809,NaN
2.814,-4.395,-0.977,-45.410,-24.902,0
2.817,0.977,7.324,-44.922,-29.785,0
2.821,1.465,26.855,-38.574,-30.762,0
2.825,-11.719,26.367,-30.273,-23.438,0
2.829,-20.508,16.602,-23.438,-26.855,NaN
2.833,-22.461,18.066,-22.949,-26.855,NaN
2.837,-21.484,28.320,-27.832,-27.344,NaN
2.831,-16.113,27.344,-26.367,-25.879,0
2.835,-6.836,22.949,-27.344,-19.531,0
2.839,-6.348,11.230,-24.414,-19.043,0
2.843,-9.277,5.859,-24.414,-24.902,NaN
2.847,-16.113,9.277,-34.180,-28.809,0
2.851,-18.066,13.184,-27.832,-20.996,0
2.854,-14.160,19.043,-22.461,-21.484,0
2.858,-20.020,15.625,-30.273,-30.273,0
2.862,-20.020,10.742,-38.086,-30.762,NaN
2.866,-21.484,15.137,-41.992,-28.809,0
2.870,-22.949,16.113,-34.668,-17.578,0
2.874,-18.555,25.391,-35.156,-18.066,0
2.888,-21.973,35.645,-26.855,-33.203,0
2.892,-20.020,27.344,-21.484,-27.344,NaN
2.896,-24.414,11.719,-40.039,-22.461,0
2.900,-36.133,-3.906,-35.156,-22.949,0
2.904,-35.645,3.418,-19.531,-20.508,0
2.908,-33.691,23.438,-29.785,-25.391,0
2.911,-35.156,25.879,-42.480,-20.020,0
2.915,-29.297,2.441,-35.645,-18.066,NaN
2.919,-26.855,1.953,-21.973,-21.973,0
2.923,-28.809,24.902,-23.438,-26.855,0
2.927,-37.109,25.879,-29.297,-37.109,0
2.931,-46.875,26.367,-23.438,-31.738,0
2.944,-44.922,28.809,-17.090,-36.133,0
2.948,-35.156,26.367,-28.809,-49.805,0
2.952,-27.344,13.184,-41.504,-45.410,NaN
2.956,-33.691,11.230,-43.457,-47.363,0
2.960,-50.293,22.461,-45.898,-47.363,NaN
2.964,-48.340,23.438,-36.621,-47.363,0
2.967,-33.203,10.742,-18.555,-52.246,NaN
2.971,-37.598,2.930,-20.020,-48.828,0
2.975,-35.156,7.324,-27.832,-40.039,0
2.979,-28.809,21.484,-26.855,-45.898,NaN
2.983,-36.133,16.113,-27.344,-41.992,NaN
2.987,-35.645,11.719,-30.273,-42.480,NaN
2.982,-31.250,15.625,-22.461,-50.293,0
2.986,-36.621,-0.977,-19.531,-44.434,0
2.990,-26.855,0.977,-27.344,-54.199,0
2.994,-26.367,10.254,-41.504,-68.848,0
2.998,-41.504,-18.555,-50.293,-68.359,NaN
3.002,-33.203,-17.090,-50.781,-61.523,0
3.005,-41.016,16.602,-45.898,-64.453,0
3.009,-44.434,19.043,-34.180,-49.316,0
3.013,-36.133,12.207,-37.109,-33.691,0
3.017,-16.602,15.137,-42.480,-24.414,NaN
3.021,-1.465,1.953,-32.715,-12.695,NaN
3.025,-30.762,-12.695,-26.367,-23.926,NaN
3.019,-55.664,-1.465,-32.715,-45.410,0
3.023,-53.223,4.395,-48.828,-51.270,0
3.027,-45.410,-4.883,-45.898,-42.969,0
3.031,-46.875,-13.184,-25.879,-46.387,NaN
3.035,-53.711,-16.113,-18.066,-48.340,0
3.039,-54.688,-31.250,-24.902,-38.574,0
3.042,-56.152,-33.691,-36.621,-42.480,0
3.046,-58.594,-32.715,-32.227,-60.059,0
3.050,-65.918,-46.875,-23.438,-72.754,0
3.054,-66.406,-51.270,-23.438,-89.844,NaN
3.058,-61.523,-51.758,-13.184,-101.074,0
3.062,-70.312,-46.387,-12.207,-108.398,0
3.076,-60.059,-44.434,-20.508,-104.004,0
3.080,-45.410,-49.805,-8.789,-90.332,0
3.084,-48.340,-41.016,-9.766,-93.262,0
3.088,-64.941,-36.133,-24.414,-107.422,NaN
3.092,-62.988,-37.598,-25.879,-102.051,0
3.096,-47.852,-22.949,-24.902,-91.309,0
3.099,-52.246,-26.855,-31.738,-95.215,0
3.103,-58.105,-35.645,-30.273,-92.773,0
3.107,-56.641,-33.203,-24.414,-90.820,0
3.111,-49.805,-27.344,-27.344,-86.914,NaN
3.115,-49.316,-12.695,-27.832,-74.219,NaN
3.119,-35.645,-17.090,-20.020,-78.125,0
3.113,-21.973,-36.621,-13.184,-84.961,0
3.117,-22.461,-22.949,-21.484,-83.008,NaN
3.121,-16.113,-4.883,-32.227,-85.449,NaN
3.125,-12.695,-3.906,-29.785,-89.844,0
3.129,-17.578,-2.441,-30.762,-78.125,0
3.133,-19.531,-5.371,-28.320,-63.965,0
3.136,-14.648,-4.883,-24.414,-63.477,NaN
3.140,-22.949,-6.836,-32.227,-61.035,0
3.144,-29.785,-20.996,-22.461,-63.477,0
3.148,-34.668,-29.785,-12.207,-61.523,NaN
3.152,-40.039,-32.227,-14.160,-48.828,0
3.156,-35.156,-24.414,-25.879,-57.617,0
3.169,-29.297,-4.395,-38.086,-72.754,0
3.173,-28.320,4.883,-17.578,-74.219,0
3.177,-34.180,1.465,-3.418,-71.289,0
3.181,-26.855,-8.789,-29.297,-67.871,0
3.185,-25.391,-8.789,-41.504,-64.453,0
3.189,-26.855,-13.184,-34.668,-70.801,0
3.192,-20.996,-12.695,-24.414,-81.543,NaN
3.196,-29.785,-1.953,-15.137,-65.918,0
3.200,-28.320,-9.766,-27.832,-55.176,0
3.204,-26.855,-11.719,-33.203,-68.359,0
3.208,-30.273,-10.742,-28.320,-71.777,0
3.212,-22.949,-15.625,-45.410,-66.406,NaN
3.208,-22.461,-17.090,-49.316,-63.477,NaN
3.212,-22.949,-8.301,-34.668,-66.406,NaN
3.216,-29.297,-14.160,-33.691,-66.895,0
3.220,-41.016,-23.926,-43.945,-58.594,0
3.224,-41.504,2.930,-41.992,-52.246,0
3.228,-39.062,6.348,-29.785,-48.340,0
3.231,-31.250,-8.789,-28.320,-42.969,0
3.235,-27.344,-0.488,-35.645,-32.227,NaN
3.239,-25.391,7.324,-33.691,-24.902,0
3.243,-22.461,0.488,-36.133,-24.414,0
3.247,-26.367,-6.348,-45.898,-16.602,0
3.251,-35.156,-12.695,-38.574,-22.949,0
3.263,-38.574,-16.113,-23.438,-33.203,0
3.267,-31.738,-11.230,-24.414,-30.273,0
3.271,-33.691,-14.160,-40.039,-28.320,0
3.275,-38.574,-10.254,-47.852,-38.086,NaN
3.279,-27.832,4.395,-38.086,-43.945,0
3.283,-20.996,8.301,-33.691,-35.645,0
3.286,-29.297,9.766,-29.297,-41.504,0
3.290,-32.715,4.883,-20.020,-46.387,0
3.294,-24.902,-10.254,-31.250,-34.668,0
3.298,-20.996,-4.883,-42.969,-28.320,NaN
3.302,-26.855,-2.930,-38.574,-27.344,0
3.306,-32.227,-6.836,-36.133,-21.484,0
3.300,-29.785,-12.695,-40.527,-26.855,NaN
3.304,-18.066,-11.719,-35.156,-20.996,NaN
3.308,-16.113,2.930,-32.715,-10.742,NaN
3.312,-29.297,0.488,-26.855,-25.391,0
3.316,-28.809,-1.953,-16.602,-27.832,0
3.320,-27.344,-11.230,-18.555,-14.648,0
3.323,-31.738,-11.230,-20.508,-11.719,NaN
3.327,-28.809,0.000,-20.020,-16.113,0
3.331,-27.832,-1.465,-14.648,-17.090,0
3.335,-18.066,-16.113,-15.137,-5.371,0
3.339,-12.695,-18.066,-23.926,-1.465,0
3.343,-33.691,-7.812,-32.227,-23.438,0
3.357,-53.223,-2.441,-29.785,-34.668,0
3.361,-38.086,-5.859,-19.043,-22.949,NaN
3.365,-31.250,-13.672,-25.391,-25.391,0
3.369,-31.250,-21.973,-38.086,-31.738,0
3.373,-26.855,-14.160,-37.598,-32.227,0
3.377,-37.598,-10.742,-32.715,-44.434,0
3.380,-32.715,-16.602,-26.855,-42.480,NaN
3.384,-18.555,-28.809,-26.855,-33.203,0
3.388,-19.043,-20.020,-36.133,-31.250,0
3.392,-23.438,9.277,-43.457,-34.668,0
3.396,-25.391,12.207,-48.828,-36.621,0
3.400,-31.250,6.348,-48.340,-43.457,NaN
3.394,-33.691,12.695,-45.410,-39.062,NaN
3.398,-26.367,6.348,-56.152,-23.926,NaN
3.402,-20.508,-13.184,-60.547,-25.879,0
3.406,-9.766,-7.324,-47.363,-18.555,0
3.410,-11.719,8.789,-36.621,-17.090,0
3.414,-25.879,3.906,-35.156,-24.902,NaN
3.417,-19.531,-4.395,-44.922,-15.625,0
3.421,-13.672,0.488,-43.457,-15.625,0
3.425,-19.531,2.441,-36.621,-14.160,0
3.429,-20.508,-21.484,-36.133,-17.578,0
3.433,-26.367,-29.297,-34.180,-31.738,NaN
3.437,-28.809,6.348,-35.645,-28.320,0
3.451,-22.949,24.902,-32.227,-21.973,0
3.455,-25.391,17.578,-29.297,-26.367,0
3.459,-29.297,9.277,-25.391,-22.949,0
3.463,-30.762,3.906,-23.438,-12.695,0
3.467,-32.715,0.000,-25.391,-10.742,NaN
3.471,-29.297,-6.836,-30.762,-21.484,0
3.474,-25.391,-2.930,-38.574,-31.738,0
3.478,-20.996,0.977,-36.133,-12.695,0
3.482,-26.367,-2.441,-31.738,-14.648,0
3.486,-32.715,-0.977,-27.832,-36.621,NaN
3.490,-24.902,1.953,-26.367,-35.156,NaN
3.494,-21.973,0.977,-27.344,-27.344,NaN
3.488,-19.531,-9.766,-28.320,-20.508,0
3.492,-17.090,-14.160,-37.598,-20.996,0
3.496,-8.789,-16.113,-46.875,-26.367,0
3.500,-0.977,-23.926,-47.363,-23.438,NaN
3.504,-7.324,-11.230,-33.203,-16.602,0
3.508,-15.625,0.488,-21.973,-19.043,0
3.511,-10.742,0.977,-24.902,-27.832,0
3.515,-13.184,11.230,-24.414,-36.621,NaN
3.519,-27.344,17.090,-27.344,-38.086,0
3.523,-24.414,7.324,-29.297,-39.551,0
3.527,-13.184,4.883,-23.926,-30.273,NaN
3.531,-15.625,5.859,-30.273,-27.344,0
3.545,-13.184,-2.441,-44.922,-32.715,0
3.549,-5.859,-17.578,-41.016,-25.391,0
3.553,-9.766,-11.230,-32.715,-25.391,0
3.557,-15.137,5.371,-36.133,-38.574,NaN
3.561,-18.066,1.953,-38.574,-40.527,0
3.565,-15.625,1.465,-35.645,-34.180,0
3.568,-15.137,2.441,-30.762,-42.480,0
3.572,-24.414,-7.324,-27.832,-41.016,0
3.576,-14.648,-14.648,-28.320,-22.461,NaN
3.580,-12.207,-20.508,-36.621,-27.344,0
3.584,-24.902,-14.648,-44.922,-34.668,0
3.588,-18.555,1.465,-43.457,-30.273,NaN
3.581,-18.555,-4.883,-34.668,-27.344,NaN
3.585,-23.438,-20.508,-30.273,-21.484,NaN
3.589,-17.090,-11.719,-38.086,-17.578,0
3.593,-14.648,2.441,-36.621,-9.277,0
3.597,-16.602,-0.488,-26.367,-6.348,0
3.601,-19.531,-13.672,-27.344,-8.301,NaN
3.604,-24.414,-11.719,-36.621,-7.324,0
3.608,-21.484,-6.348,-42.969,-6.348,0
3.612,-11.719,-12.695,-31.250,-6.836,0
3.616,-14.648,-16.602,-21.973,-11.230,0
3.620,-26.855,-16.602,-20.508,-11.719,0
3.624,-28.809,-29.297,-25.391,-21.973,0
3.638,-30.273,-33.691,-35.645,-21.973,0
3.642,-41.016,-20.508,-40.527,-27.344,0
3.646,-45.410,4.395,-39.551,-44.434,0
3.650,-38.086,4.883,-30.762,-37.598,0
3.654,-33.203,-0.977,-24.902,-29.785,0
3.658,-30.273,8.789,-26.367,-33.691,0
3.661,-21.973,6.836,-22.949,-34.180,NaN
3.665,-22.461,-2.441,-19.043,-31.250,0
3.669,-27.832,-11.719,-22.461,-37.598,0
3.673,-33.203,-12.207,-35.156,-44.434,0
3.677,-30.762,-14.160,-44.922,-47.363,NaN
3.681,-30.762,-21.484,-51.758,-48.828,NaN
3.677,-31.250,-15.625,-48.340,-43.457,NaN
3.681,-39.551,-10.742,-35.645,-46.387,0
3.685,-46.875,-22.461,-21.484,-50.293,0
3.689,-35.645,-21.484,-16.602,-46.875,0
3.693,-26.855,-7.324,-20.020,-50.293,NaN
3.697,-30.273,-9.277,-20.020,-44.922,0
3.700,-24.902,-11.230,-25.391,-28.320,NaN
3.704,-32.227,-10.254,-39.062,-36.621,0
3.708,-43.457,-5.371,-39.551,-54.688,0
3.712,-31.250,-4.395,-23.926,-35.156,NaN
3.716,-24.902,-11.719,-22.949,-21.973,0
3.720,-19.531,-23.926,-29.785,-31.250,0
3.731,-21.973,-16.113,-42.480,-35.156,0
3.735,-38.574,-7.812,-52.246,-45.898,0
3.739,-35.645,-13.184,-48.828,-44.922,0
3.743,-37.109,-16.602,-53.711,-34.668,0
3.747,-38.574,-15.137,-47.852,-38.574,NaN
3.751,-32.715,-12.695,-31.250,-46.875,0
3.754,-33.203,-13.184,-30.762,-48.340,0
3.758,-30.273,-5.859,-30.273,-42.969,0
3.762,-30.762,-6.836,-28.809,-43.945,NaN
3.766,-30.762,-4.883,-30.762,-56.641,0
3.770,-26.855,-3.418,-40.527,-54.688,0
3.774,-30.762,-7.324,-51.270,-54.688,0
3.769,-25.879,-8.301,-40.039,-54.688,NaN
3.773,-20.996,-10.742,-37.109,-48.340,NaN
3.777,-31.738,2.441,-43.945,-56.152,NaN
3.781,-37.109,8.301,-43.457,-62.988,0
3.785,-36.621,3.906,-41.504,-56.641,0
3.789,-33.203,7.324,-40.527,-52.734,0
3.792,-29.297,8.789,-37.598,-58.105,NaN
3.796,-38.574,10.742,-24.902,-47.852,0
3.800,-41.504,0.488,-23.438,-31.250,0
3.804,-28.809,-5.859,-32.227,-30.762,0
3.808,-27.344,-0.488,-35.645,-25.391,0
3.812,-26.855,-10.742,-32.227,-29.297,0
3.825,-24.414,-11.230,-25.879,-31.738,0
3.829,-35.645,-7.812,-23.926,-34.180,0
3.833,-31.250,-2.441,-28.809,-42.480,0
3.837,-25.879,1.953,-31.250,-36.133,NaN
3.841,-31.738,-6.348,-22.461,-36.621,0
3.845,-23.926,-9.766,-23.926,-34.180,0
3.848,-19.531,-12.207,-28.809,-19.531,0
3.852,-17.090,-16.602,-25.879,-23.438,NaN
3.856,-21.484,-2.441,-29.297,-32.715,0
3.860,-27.344,7.324,-35.645,-30.762,0
3.864,-30.762,5.859,-33.691,-29.785,0
3.868,-34.180,-0.977,-24.902,-32.715,NaN
3.863,-34.180,-17.090,-20.508,-29.297,NaN
3.867,-32.715,-7.324,-22.949,-31.250,NaN
3.871,-30.762,2.930,-35.645,-38.086,0
3.875,-33.691,0.488,-36.621,-35.645,0
3.879,-32.715,4.395,-24.414,-30.273,NaN
3.883,-35.156,5.859,-36.133,-34.180,0
3.886,-35.645,2.930,-39.551,-34.668,NaN
3.890,-35.645,-8.301,-29.297,-35.645,0
3.894,-41.992,-9.766,-26.855,-36.621,0
3.898,-44.434,-2.930,-29.785,-28.809,0
3.902,-43.945,2.441,-34.668,-13.672,0
3.906,-39.551,4.395,-39.551,-14.648,NaN
3.902,-36.133,-0.488,-33.691,-29.297,NaN
3.906,-33.691,-9.766,-20.508,-30.273,NaN
3.910,-29.785,-8.789,-22.949,-22.949,0
3.914,-30.762,2.441,-32.227,-26.855,0
3.918,-28.809,3.418,-39.551,-39.062,0
3.922,-21.973,-12.207,-38.086,-27.832,NaN
3.925,-19.043,-17.090,-24.902,-20.996,0
3.929,-12.207,-2.930,-24.414,-9.277,0
3.933,-5.859,-1.953,-39.062,-15.625,NaN
3.937,-13.184,-15.137,-38.574,-37.598,0
3.941,-20.996,-11.719,-29.297,-30.762,0
3.945,-14.160,-0.977,-41.016,-19.531,0
3.956,9.277,-8.301,-43.457,2.441,0
3.960,5.371,-17.578,-22.461,-3.418,0
3.964,-22.949,-16.602,-17.090,-25.391,0
3.968,-20.020,-1.953,-28.320,-23.438,NaN
3.972,-11.230,0.000,-22.949,-27.344,0
3.976,-20.996,-11.719,-15.137,-23.438,0
3.979,-39.551,-22.461,-15.137,-24.414,0
3.983,-50.293,-28.809,-18.066,-26.855,0
3.987,-50.781,-32.227,-19.043,-17.090,NaN
3.991,-43.945,-37.109,-4.883,-14.648,0
3.995,-47.363,-33.691,-4.883,-16.602,0
3.999,-51.758,-30.762,-13.184,-18.066,0
4.015,-59.570,-44.922,-9.277,-25.391,0
4.019,-57.129,-52.246,-4.883,-25.879,0
4.023,-45.410,-40.527,-11.719,-30.273,NaN
4.027,-45.898,-37.598,-4.395,-27.344,0
4.031,-29.297,-34.180,10.742,-6.348,0
4.035,-17.578,-25.391,2.441,-7.324,0
4.038,-33.691,-25.879,-4.395,-23.926,0
4.042,-45.898,-22.949,-3.906,-28.320,NaN
4.046,-53.223,-17.090,-13.672,-28.809,0
4.050,-62.500,-25.391,-16.113,-22.461,NaN
4.054,-58.105,-29.297,-18.066,-15.137,0
4.058,-51.270,-20.508,-24.902,-17.578,NaN
4.050,-50.781,-10.254,-14.648,-16.113,0
4.054,-45.898,-16.113,-1.953,-18.555,NaN
4.058,-33.203,-29.785,-9.277,-17.090,NaN
4.062,-29.785,-28.809,-4.395,-22.461,0
4.066,-32.227,-12.207,1.953,-33.691,0
4.070,-19.531,9.766,-6.348,-39.062,0
4.073,-15.625,17.090,-15.137,-50.781,0
4.077,-25.879,14.648,-17.090,-51.758,NaN
4.081,-38.574,8.301,-20.020,-38.086,0
4.085,-40.039,2.930,-26.367,-33.203,NaN
4.089,-30.762,4.883,-29.297,-20.996,NaN
4.093,-35.156,13.184,-23.926,-17.578,0
4.089,-38.574,0.488,-37.109,-25.391,0
4.093,-29.297,-14.648,-51.270,-25.391,NaN
4.097,-20.996,-4.395,-13.672,-28.320,NaN
4.101,-29.785,1.465,13.672,-40.527,0
4.105,-34.668,5.371,9.766,-36.133,0
4.109,-20.020,12.207,-0.977,-21.973,0
4.112,-22.949,10.742,-12.695,-27.344,NaN
4.116,-29.297,0.000,-31.738,-26.855,0
4.120,-28.320,-5.859,-32.227,-25.391,0
4.124,-29.297,5.859,-12.695,-32.715,0
4.128,-24.902,18.066,-11.719,-20.996,0
4.132,-22.461,12.207,-20.020,-21.973,0
4.145,-30.762,7.812,-27.832,-36.621,0
4.149,-40.527,-0.977,-15.625,-32.715,0
4.153,-39.551,-8.301,-14.648,-31.250,0
4.157,-42.969,-5.859,-33.691,-35.156,NaN
4.161,-46.387,-0.488,-37.109,-35.156,0
4.165,-41.016,4.395,-26.367,-32.715,0
4.168,-31.738,2.441,-8.789,-37.109,0
4.172,-33.691,-2.441,-6.348,-40.527,NaN
4.176,-40.527,-5.859,-20.508,-41.016,0
4.180,-37.109,-1.465,-24.414,-38.574,0
4.184,-48.828,4.395,-21.973,-19.531,0
4.188,-51.758,0.000,-25.391,-12.695,0
4.200,-40.527,-7.324,-24.902,-22.461,0
4.204,-38.574,-6.836,-15.625,-23.438,0
4.208,-37.598,4.883,-19.531,-23.438,0
4.212,-33.691,4.395,-24.414,-33.203,NaN
4.216,-35.156,-1.953,-15.625,-39.062,0
4.220,-43.457,0.000,-12.207,-36.621,0
4.223,-49.805,-5.371,-12.207,-32.227,0
4.227,-43.457,-4.395,-8.301,-24.414,NaN
4.231,-36.133,-2.441,-10.742,-18.555,0
4.235,-47.852,-4.883,-9.766,-21.484,0
4.239,-43.945,-7.812,-6.348,-16.602,0
4.243,-29.297,-2.441,-13.184,-20.508,NaN
4.238,-42.969,-1.953,-17.090,-25.391,NaN
4.242,-45.898,-2.930,-21.973,-19.531,NaN
4.246,-27.344,3.906,-21.484,-13.672,0
4.250,-18.555,-4.395,-9.766,-1.953,0
4.254,-20.020,-13.184,-4.395,0.000,0
4.258,-43.457,-8.301,-7.812,-16.113,NaN
4.261,-50.293,-2.930,-11.719,-22.949,NaN
4.265,-42.480,-5.371,-4.395,-14.160,0
4.269,-31.250,-9.277,4.395,0.977,0
4.273,-18.066,-20.020,5.371,3.906,NaN
4.277,-18.555,-22.949,3.906,4.395,0
4.281,-19.531,-19.043,-1.953,3.906,0
4.294,-22.949,-18.555,-3.906,0.977,0
4.298,-16.602,-19.531,-9.766,14.160,0
4.302,-9.766,-25.879,-11.719,20.508,NaN
4.306,-2.930,-23.926,4.395,10.254,0
4.310,11.230,-19.531,19.531,21.484,0
4.314,11.230,-19.043,16.113,32.227,NaN
4.317,5.371,-17.578,8.789,25.879,0
4.321,8.789,-12.207,10.742,30.762,0
4.325,4.395,-18.066,6.836,34.668,0
4.329,-3.906,-29.297,3.418,18.066,NaN
4.333,5.859,-18.066,-1.465,14.160,NaN
4.337,2.930,-10.254,-12.695,7.812,0
4.331,-8.789,-12.695,-14.160,5.371,0
4.335,-5.859,-16.113,-10.742,18.555,NaN
4.339,-9.277,-20.508,-6.348,16.113,NaN
4.343,-20.508,-8.789,-8.789,9.277,0
4.347,-20.020,2.930,-12.207,-2.441,0
4.351,-16.602,2.930,-7.324,-11.230,0
4.354,-14.160,2.441,-4.883,-6.348,0
4.358,-8.301,0.977,-4.395,-4.395,NaN
4.362,-7.324,-20.996,2.441,-9.277,0
4.366,-0.977,-27.344,-7.812,-8.789,0
4.370,-7.812,-9.766,-14.648,3.418,0
4.374,-23.438,-7.324,-5.859,-6.348,0
4.388,-22.949,-4.395,1.953,-19.043,0
4.392,-22.461,4.395,1.953,-17.578,0
4.396,-19.531,2.441,-4.883,-11.719,0
4.400,-10.254,-1.953,-16.602,-21.484,0
4.404,-15.137,-0.488,-32.715,-34.668,NaN
4.408,-23.438,-2.441,-29.785,-24.902,0
4.411,-20.996,-3.418,-19.043,-21.484,0
4.415,-19.531,-14.160,-18.555,-25.879,0
4.419,-20.508,-12.695,-15.625,-42.480,0
4.423,-18.555,3.906,-10.254,-43.457,NaN
4.427,-8.301,-6.836,-9.277,-37.109,NaN
4.431,-7.812,-6.836,-9.277,-42.969,0
4.425,-26.367,-4.395,-17.578,-45.898,0
4.429,-29.785,0.000,-33.691,-55.176,NaN
4.433,-23.926,11.719,-37.109,-47.852,NaN
4.437,-18.066,7.812,-27.832,-37.109,0
4.441,-2.441,5.859,-23.926,-38.086,0
4.445,8.301,10.742,-30.762,-36.621,0
4.448,-4.883,5.859,-27.832,-34.180,NaN
4.452,-19.043,-1.953,-22.949,-31.738,0
4.456,-25.391,-4.883,-21.973,-40.527,0
4.460,-25.391,1.465,-13.184,-43.457,0
4.464,-27.344,10.742,-11.719,-35.156,0
4.468,-22.949,5.859,-17.090,-37.109,0
4.481,1.465,5.371,-25.391,-38.086,0
4.485,-6.348,8.789,-37.598,-41.504,NaN
4.489,-25.391,-0.488,-43.457,-41.504,0
4.493,-28.320,-1.465,-38.574,-39.551,0
4.497,-27.832,0.977,-17.090,-51.758,0
4.501,-10.742,-0.488,-10.742,-55.664,NaN
4.504,-13.184,7.812,-19.531,-63.477,0
4.508,-32.227,2.930,-27.344,-63.965,0
4.512,-37.109,-3.418,-30.762,-51.270,0
4.516,-24.902,2.930,-26.367,-47.852,NaN
4.520,-12.207,7.812,-22.461,-55.176,NaN
4.524,-13.672,4.395,-36.621,-59.082,NaN
4.519,-32.715,2.930,-37.598,-56.152,0
4.523,-44.434,-1.465,-23.438,-64.453,0
4.527,-41.504,-11.230,-26.367,-60.059,0
4.531,-33.691,3.418,-27.832,-60.547,NaN
4.535,-29.785,16.113,-29.297,-66.895,0
4.539,-32.227,16.602,-25.391,-53.223,0
4.542,-29.297,10.254,-24.902,-53.223,0
4.546,-33.203,-1.465,-30.762,-60.059,0
4.550,-37.109,-0.488,-30.762,-57.129,NaN
4.554,-29.785,3.906,-28.320,-56.152,0
4.558,-22.461,-4.395,-24.414,-50.781,0
4.562,-27.344,-12.695,-20.020,-50.781,0
4.558,-40.039,-7.324,-18.555,-59.082,NaN
4.562,-34.180,-8.789,-18.066,-55.664,NaN
4.566,-30.273,-17.578,-20.996,-43.457,NaN
4.570,-33.203,-22.949,-31.250,-38.086,0
4.574,-26.367,-13.672,-37.598,-41.016,0
4.578,-22.461,-6.836,-38.574,-37.109,0
4.581,-18.066,-8.301,-27.344,-38.086,0
4.585,-20.996,-3.418,-33.203,-34.668,NaN
4.589,-23.438,-2.441,-40.527,-25.391,0
4.593,-17.090,4.883,-34.668,-28.320,0
4.597,-18.066,3.418,-26.855,-40.527,0
4.601,-15.137,-10.254,-20.996,-48.340,0
4.614,-20.996,-8.789,-25.391,-51.270,0
4.618,-26.855,1.953,-32.715,-48.340,0
4.622,-28.320,1.465,-41.504,-45.410,0
4.626,-30.762,0.488,-39.062,-51.758,0
4.630,-19.043,7.812,-33.691,-42.480,NaN
4.634,-16.113,-0.488,-29.785,-33.203,0
4.637,-14.160,-18.066,-28.809,-28.809,NaN
4.641,-4.395,-22.461,-28.320,-19.043,0
4.645,0.977,-8.301,-22.949,-26.855,0
4.649,-9.766,0.000,-16.113,-31.250,0
4.653,-26.367,-3.906,-14.648,-30.273,NaN
4.657,-30.273,-7.324,-36.133,-39.551,0
4.669,-29.785,-7.812,-45.410,-34.668,0
4.673,-28.809,-6.836,-31.250,-40.039,0
4.677,-28.809,-4.395,-28.809,-44.922,0
4.681,-31.250,0.977,-33.203,-37.598,0
4.685,-38.086,-1.953,-45.898,-42.969,NaN
4.689,-44.922,-16.113,-52.246,-40.527,0
4.692,-40.527,-24.902,-26.855,-37.598,0
4.696,-29.297,-15.137,-9.277,-27.832,0
4.700,-23.438,-9.277,-20.020,-16.113,0
4.704,-11.719,-16.113,-32.227,-19.043,NaN
4.708,-18.066,-12.207,-35.645,-37.598,NaN
4.712,-37.598,-7.324,-32.715,-58.105,0
4.707,-36.621,-12.695,-27.344,-62.012,0
4.711,-38.086,-15.137,-23.438,-66.895,NaN
4.715,-48.340,-19.043,-30.762,-59.082,0
4.719,-49.805,-25.879,-30.762,-59.570,NaN
4.723,-41.504,-26.855,-31.250,-59.082,0
4.727,-36.621,-19.043,-43.945,-53.711,0
4.730,-39.551,-17.578,-39.062,-51.758,0
4.734,-35.645,-28.320,-26.855,-39.551,0
4.738,-39.062,-24.902,-23.438,-35.645,NaN
4.742,-42.480,-15.625,-23.926,-38.574,0
4.746,-38.574,-7.812,-32.715,-29.297,0
4.750,-37.109,-11.719,-42.480,-23.438,0
4.763,-34.668,-21.484,-38.086,-40.039,0
4.767,-39.551,-18.066,-22.949,-41.504,0
4.771,-45.410,-11.719,-20.996,-31.250,0
4.775,-39.062,-12.207,-40.039,-47.363,0
4.779,-25.391,-20.508,-48.828,-54.199,0
4.783,-24.414,-31.738,-20.508,-41.992,NaN
4.786,-39.551,-21.484,-11.719,-42.969,0
4.790,-46.875,-2.930,-26.367,-43.945,0
4.794,-50.293,-3.418,-25.391,-44.434,NaN
4.798,-46.875,-9.766,-20.508,-42.969,0
4.802,-30.762,-6.348,-27.832,-41.016,NaN
4.806,-10.742,3.418,-31.738,-44.922,0
4.801,-3.418,9.277,-29.297,-35.645,0
4.805,-20.020,1.465,-23.438,-32.715,NaN
4.809,-25.391,-2.441,-18.066,-49.316,NaN
4.813,-11.719,8.301,-23.438,-46.875,0
4.817,-18.555,4.395,-33.691,-37.109,0
4.821,-32.227,-5.859,-34.180,-38.086,NaN
4.824,-39.062,-1.465,-36.133,-33.203,0
4.828,-42.969,5.859,-37.109,-28.809,0
4.832,-37.598,-0.977,-35.156,-35.645,NaN
4.836,-28.809,-10.254,-28.809,-37.598,0
4.840,-20.996,0.000,-21.973,-24.902,0
4.844,-24.414,9.766,-23.926,-27.344,0
4.857,-21.484,11.230,-24.902,-31.250,0
4.861,-16.113,11.719,-23.438,-24.414,0
4.865,-22.949,7.324,-28.320,-22.461,0
4.869,-21.484,-0.977,-41.504,-31.250,NaN
4.873,-21.484,-3.418,-42.969,-33.203,0
4.877,-22.461,-10.254,-34.180,-19.531,0
4.880,-21.484,-10.742,-29.785,-31.738,0
4.884,-29.785,-2.441,-24.902,-39.062,NaN
4.888,-40.039,-1.465,-22.949,-41.016,NaN
4.892,-38.574,-0.488,-28.809,-48.340,0
4.896,-28.809,-3.418,-22.461,-41.016,NaN
4.900,-22.949,-0.977,-17.090,-46.875,NaN
4.894,-17.090,0.488,-25.879,-49.805,NaN
4.898,-16.113,1.465,-29.785,-53.711,0
4.902,-20.508,1.953,-30.273,-52.246,0
4.906,-25.391,-6.836,-35.156,-44.434,0
4.910,-25.391,-14.160,-38.574,-50.293,NaN
4.914,-20.996,-7.324,-35.156,-48.828,0
4.917,-21.973,2.930,-34.180,-30.762,0
4.921,-26.367,-6.836,-39.062,-25.391,0
4.925,-24.414,-11.719,-36.621,-22.949,0
4.929,-21.484,-6.836,-30.762,-16.602,NaN
4.933,-23.438,-9.277,-32.715,-8.789,0
4.937,-25.879,-4.883,-26.367,-6.348,0
4.950,-29.785,-6.348,-25.879,-23.926,0
4.954,-33.203,-15.137,-38.086,-34.668,NaN
4.958,-30.762,-13.184,-34.180,-27.344,0
4.962,-40.039,-6.836,-16.113,-26.855,0
4.966,-51.270,-6.348,-15.137,-28.809,0
4.970,-37.598,-6.836,-26.367,-29.297,NaN
4.973,-26.855,-4.395,-25.879,-34.180,0
4.977,-36.621,-5.371,-25.879,-26.855,0
4.981,-41.016,0.488,-29.785,-28.320,0
4.985,-36.621,11.230,-23.926,-42.969,0
4.989,-31.250,5.859,-17.090,-43.457,NaN
4.993,-25.879,0.000,-17.090,-41.992,NaN
4.991,-37.598,-8.301,-24.414,-52.734,0
4.995,-45.410,-22.949,-22.949,-60.059,0
4.999,-34.180,-20.996,-17.578,-36.621,NaN
5.003,-35.156,-11.230,-29.785,-35.156,0
5.007,-59.570,0.977,-36.621,-68.359,0
5.011,-75.684,6.836,-27.832,-81.055,0
5.014,-76.660,3.906,-20.020,-83.008,NaN
5.018,-90.820,2.441,-15.137,-95.215,0
5.022,-109.375,-4.883,-29.297,-112.793,0
5.026,-121.094,2.930,-38.574,-122.559,NaN
5.030,-119.629,12.695,-26.367,-106.445,0
5.034,-115.723,14.160,-28.809,-115.723,0
5.027,-123.535,17.090,-45.898,-136.230,NaN
5.031,-112.793,26.367,-41.992,-121.094,NaN
5.035,-120.605,27.344,-29.297,-135.254,NaN
5.039,-131.348,25.391,-21.973,-152.344,0
5.043,-122.559,42.480,-20.996,-147.461,0
5.047,-120.605,46.387,-29.785,-142.090,NaN
5.050,-115.234,33.691,-43.457,-133.789,0
5.054,-123.535,34.180,-50.781,-137.695,0
5.058,-128.906,44.922,-46.387,-124.512,NaN
5.062,-133.301,41.504,-46.875,-128.418,0
5.066,-140.625,40.039,-48.828,-149.902,0
5.070,-157.227,52.734,-45.898,-165.039,0
5.081,-164.551,45.410,-38.574,-171.875,0
5.085,-148.926,34.668,-54.199,-167.480,0
5.089,-145.508,25.391,-87.402,-159.668,0
5.093,-128.418,0.977,-76.660,-145.996,NaN
5.097,-116.211,4.883,-49.805,-137.695,0
5.101,-131.348,23.438,-20.508,-143.066,0
5.104,-126.953,24.902,10.254,-145.020,0
5.108,-107.910,26.367,-2.441,-128.906,0
5.112,-93.262,35.645,-27.344,-111.328,NaN
5.116,-90.332,32.715,-27.344,-101.562,0
5.120,-76.660,27.832,-32.715,-77.148,0
5.124,-54.688,24.902,-46.387,-67.383,0
5.138,-48.828,15.137,-49.316,-69.824,0
5.142,-51.270,4.395,-46.875,-63.477,0
5.146,-36.621,4.395,-50.781,-51.270,0
5.150,-20.020,4.883,-52.246,-41.504,0
5.154,-20.996,-2.441,-57.129,-40.527,0
5.158,-27.832,-10.742,-71.289,-31.250,NaN
5.161,-24.414,-14.160,-75.684,-24.414,0
5.165,-16.602,-1.953,-62.012,-23.438,0
5.169,-6.348,1.953,-55.176,-19.531,0
5.173,-7.324,-9.766,-58.105,-20.508,NaN
5.177,-11.230,-15.137,-62.500,-20.020,NaN
5.181,-15.625,-10.742,-72.266,-15.625,0
5.175,-19.043,-12.207,-70.312,-10.254,0
5.179,-14.648,-20.508,-54.688,-6.836,NaN
5.183,-8.301,-20.508,-41.016,-10.254,NaN
5.187,-2.930,-19.043,-28.320,-2.930,0
5.191,-0.488,-17.090,-32.715,0.000,0
5.195,-7.324,-20.508,-47.363,-7.324,0
5.198,-11.719,-25.879,-43.457,-1.465,NaN
5.202,-2.930,-23.438,-45.898,3.906,0
5.206,0.000,-15.625,-65.430,2.930,0
5.210,-5.371,-19.531,-62.500,0.488,0
5.214,-13.672,-19.043,-44.922,8.301,NaN
5.218,-16.602,-40.039,-40.039,19.043,NaN
5.214,-8.789,-43.457,-32.227,7.324,NaN
5.218,-10.254,2.930,-35.156,-4.395,0
5.222,-15.137,8.301,-44.434,-21.973,NaN
5.226,-19.531,-9.766,-35.645,-25.879,0
5.230,-18.555,-10.254,-31.738,-23.926,0
5.234,-11.719,-12.695,-42.480,-24.414,0
5.237,-14.648,-17.090,-47.852,-28.809,NaN
5.241,-21.973,-12.695,-48.340,-27.832,0
5.245,-18.066,-10.742,-40.039,-19.531,0
5.249,-4.395,-8.301,-31.250,-22.461,0
5.253,-10.742,-19.043,-33.691,-25.879,0
5.257,-22.949,-27.344,-41.016,-34.668,0
5.269,-12.695,-16.602,-34.668,-25.879,0
5.273,6.348,-17.090,-19.531,1.465,0
5.277,2.930,-15.625,-26.367,-10.254,NaN
5.281,-10.254,-21.973,-33.203,-34.180,0
5.285,-20.996,-28.320,-41.504,-35.156,0
5.289,-26.367,-19.531,-50.781,-38.574,0
5.292,-12.695,-16.113,-43.457,-33.203,NaN
5.296,-3.418,-9.766,-44.434,-26.367,0
5.300,3.906,-7.324,-42.480,-30.762,0
5.304,-1.953,-7.812,-40.039,-36.133,0
5.308,-10.742,-13.184,-50.293,-34.180,0
5.312,-8.789,-8.301,-56.152,-37.109,0
5.325,-1.465,-1.953,-56.152,-29.785,0
5.329,4.883,-20.020,-57.617,-14.648,0
5.333,-4.883,-24.414,-57.129,-14.648,0
5.337,-11.719,-10.742,-48.828,-23.438,NaN
5.341,-13.672,-1.465,-32.715,-30.273,0
5.345,-11.230,-10.742,-19.531,-26.855,0
5.348,-10.742,-18.066,-21.973,-32.715,0
5.352,-12.695,-14.648,-36.621,-39.551,NaN
5.356,-2.930,-27.832,-45.898,-32.715,0
5.360,-4.395,-20.508,-54.199,-38.086,0
5.364,-9.766,-6.836,-55.176,-41.016,0
5.368,-7.812,-16.113,-36.621,-44.922,NaN
5.363,-14.648,-20.508,-13.672,-49.316,NaN
5.367,-25.391,-17.578,-6.348,-56.152,NaN
5.371,-22.949,-10.254,-19.531,-58.594,0
5.375,-16.602,-8.301,-27.832,-47.363,0
5.379,-18.066,-15.137,-22.949,-40.527,0
5.383,-19.531,-20.996,-24.414,-36.621,NaN
5.386,-21.484,-29.297,-40.039,-32.227,0
5.390,-19.531,-39.062,-50.293,-22.461,0
5.394,-17.578,-36.133,-47.363,-14.648,NaN
5.398,-21.484,-32.227,-35.156,-20.996,0
5.402,-29.297,-29.297,-19.531,-19.043,0
5.406,-27.832,-23.926,-13.672,-17.090,0
5.419,-30.273,-14.160,-20.508,-29.785,0
5.423,-31.738,-13.184,-30.762,-34.180,0
5.427,-24.902,-19.531,-33.203,-27.344,0
5.431,-33.691,-28.809,-36.133,-21.484,0
5.435,-36.621,-35.645,-41.016,-18.066,NaN
5.439,-26.855,-35.156,-47.852,-8.301,0
5.442,-31.738,-42.480,-43.945,-32.227,0
5.446,-30.762,-44.922,-36.621,-39.551,0
5.450,-23.438,-33.691,-46.875,-27.344,NaN
5.454,-33.691,-34.180,-54.688,-35.645,0
5.458,-34.668,-21.484,-46.875,-33.203,0
5.462,-20.508,-12.695,-27.344,-33.691,0
5.456,-20.996,-15.137,-16.113,-30.762,NaN
5.460,-31.250,-20.996,-26.855,-30.273,NaN
5.464,-25.879,-25.879,-28.809,-35.645,NaN
5.468,-25.391,-25.879,-21.973,-34.668,0
5.472,-27.344,-29.297,-17.578,-33.203,0
5.476,-22.461,-33.691,-22.949,-24.414,0
5.479,-10.742,-41.016,-34.668,-19.043,NaN
5.483,-10.742,-26.367,-35.156,-28.809,0
5.487,-16.113,-12.207,-28.809,-31.738,0
5.491,-12.695,-16.113,-22.461,-26.855,0
5.495,-13.672,-16.113,-22.461,-15.137,NaN
5.499,-14.160,-18.066,-27.832,-16.113,NaN
5.495,-13.184,-24.414,-28.809,-26.367,NaN
5.499,-19.043,-33.691,-37.598,-35.156,0
5.503,-28.320,-36.621,-42.969,-33.203,0
5.507,-27.832,-35.645,-32.227,-33.691,0
5.511,-29.785,-41.504,-30.762,-45.410,0
5.515,-35.645,-45.898,-34.668,-50.293,NaN
5.518,-30.762,-43.457,-28.809,-54.199,0
5.522,-24.414,-37.109,-31.250,-41.504,0
5.526,-32.227,-30.273,-37.598,-31.250,0
5.530,-44.434,-28.320,-33.691,-38.574,NaN
5.534,-41.504,-30.762,-28.809,-43.945,0
5.538,-34.180,-28.809,-42.969,-44.922,0
5.550,-34.668,-21.973,-43.945,-42.480,0
5.554,-36.133,-17.578,-31.250,-47.363,0
5.558,-34.668,-25.391,-26.855,-37.109,0
5.562,-27.344,-19.531,-20.020,-35.156,0
5.566,-17.090,-24.414,-14.648,-48.828,NaN
5.570,-20.508,-35.645,-22.461,-50.781,0
5.573,-10.254,-20.996,-39.551,-34.180,NaN
5.577,-8.789,-22.461,-34.180,-21.973,0
5.581,-41.016,-35.156,-25.391,-41.504,0
5.585,-45.410,-37.109,-32.715,-46.387,NaN
5.589,-32.227,-38.574,-26.855,-25.391,0
5.593,-39.062,-44.434,-22.461,-34.668,0
5.606,-38.574,-51.270,-28.320,-54.688,0
5.610,-28.320,-50.781,-35.645,-51.758,0
5.614,-38.086,-57.129,-31.250,-48.340,0
5.618,-46.387,-64.453,-18.555,-49.316,0
5.622,-43.457,-63.965,-20.508,-57.617,NaN
5.626,-40.039,-64.453,-19.531,-53.711,0
5.629,-38.086,-63.477,-12.207,-38.086,NaN
5.633,-37.598,-65.430,-15.625,-27.832,0
5.637,-54.199,-66.895,-27.344,-31.250,0
5.641,-67.383,-81.543,-20.508,-41.992,NaN
5.645,-55.176,-77.148,-9.277,-46.387,NaN
5.649,-53.711,-44.434,-22.461,-48.828,NaN
5.644,-60.547,-35.645,-44.434,-46.875,0
5.648,-56.641,-32.715,-41.504,-49.316,0
5.652,-55.176,-42.969,-33.691,-48.828,0
5.656,-42.480,-52.734,-36.133,-40.039,NaN
5.660,-31.738,-31.250,-30.273,-34.180,0
5.664,-38.086,-16.602,-36.621,-40.039,0
5.667,-37.109,-19.043,-38.574,-41.016,0
5.671,-37.598,-23.438,-22.949,-33.691,0
5.675,-38.574,-33.691,-28.809,-24.414,NaN
5.679,-35.156,-46.387,-32.715,-22.949,0
5.683,-34.668,-40.527,-18.555,-17.578,NaN
5.687,-40.527,-22.949,-16.602,-13.184,0
5.683,-36.133,-16.602,-36.133,-26.855,0
5.687,-29.297,-21.484,-35.645,-34.668,NaN
5.691,-33.203,-19.531,-22.461,-36.621,0
5.695,-34.180,-15.137,-23.926,-30.273,NaN
5.699,-34.668,-22.461,-29.785,-27.344,0
5.703,-34.668,-27.832,-39.551,-31.738,0
5.706,-25.391,-26.855,-37.109,-33.203,0
5.710,-25.879,-40.039,-36.621,-27.832,NaN
5.714,-26.855,-51.270,-41.992,-20.996,0
5.718,-25.879,-30.273,-33.691,-20.508,0
5.722,-33.691,-19.531,-34.180,-22.461,0
5.726,-33.691,-33.203,-50.781,-20.996,0
5.739,-35.645,-17.090,-49.805,-19.043,0
5.743,-34.180,-2.441,-30.762,-33.691,0
5.747,-26.367,-4.395,-10.254,-38.574,0
5.751,-30.273,-5.859,-4.395,-37.598,0
5.755,-35.156,-13.184,-16.113,-36.133,NaN
5.759,-33.691,-15.625,-23.438,-28.320,0
5.762,-31.250,-19.043,-28.809,-29.297,NaN
5.766,-38.574,-35.645,-27.832,-28.809,0
5.770,-39.551,-32.715,-25.391,-30.273,0
5.774,-29.297,-18.066,-37.598,-36.133,NaN
5.778,-37.598,-12.207,-47.852,-38.574,0
5.782,-36.133,-9.277,-39.551,-42.969,0
5.794,-26.855,-9.766,-25.879,-46.875,0
5.798,-23.926,-22.461,-21.484,-42.480,0
5.802,-25.391,-35.645,-22.461,-33.203,NaN
5.806,-22.461,-30.762,-28.809,-23.438,0
5.810,1.953,-18.555,-37.109,-9.766,0
5.814,2.441,-23.438,-24.902,-3.418,NaN
5.817,-24.902,-19.531,-23.926,-18.066,0
5.821,-36.621,-13.184,-28.809,-24.902,0
5.825,-31.738,-14.648,-20.020,-9.277,0
5.829,-26.367,-16.602,-19.531,-10.742,NaN
5.833,-35.645,-25.879,-15.137,-17.090,NaN
5.837,-42.480,-33.203,-24.902,-17.090,0
5.831,-37.598,-41.016,-33.203,-20.508,0
5.835,-42.969,-41.504,-20.020,-24.902,NaN
5.839,-47.363,-42.480,-6.348,-28.320,NaN
5.843,-48.828,-44.434,-10.254,-34.668,0
5.847,-39.062,-38.574,-15.137,-31.738,0
5.851,-36.133,-31.250,-17.578,-28.809,0
5.854,-37.598,-30.273,-22.949,-32.227,0
5.858,-37.598,-34.668,-23.438,-29.785,NaN
5.862,-45.898,-27.344,-27.344,-33.203,0
5.866,-41.504,-25.879,-24.902,-31.250,0
5.870,-32.715,-33.691,-10.742,-13.672,0
5.874,-37.598,-35.645,-9.766,-13.184,0
5.888,-42.480,-37.109,-21.973,-33.691,0
5.892,-45.898,-31.738,-19.531,-27.344,0
5.896,-35.645,-23.926,-10.254,-13.672,0
5.900,-31.250,-25.391,-5.859,-20.508,0
5.904,-42.969,-21.973,-16.602,-27.344,NaN
5.908,-43.457,-22.949,-26.855,-25.391,0
5.911,-32.715,-23.926,-23.438,-21.484,0
5.915,-28.320,-20.508,-14.160,-13.672,0
5.919,-27.344,-38.086,-2.930,-10.742,0
5.923,-26.855,-29.297,-6.836,-21.973,NaN
5.927,-28.320,-1.953,-17.578,-23.926,NaN
5.931,-27.832,-4.883,-15.137,-23.438,0
5.926,-35.645,-7.324,-12.207,-21.484,0
5.930,-34.668,-10.742,-11.719,-28.320,NaN
5.934,-25.391,-20.020,-18.066,-20.996,NaN
5.938,-23.438,-13.672,-35.645,-4.883,0
5.942,-27.344,-15.137,-29.297,-15.625,0
5.946,-32.715,-24.902,-8.789,-24.902,NaN
5.949,-30.762,-9.766,-12.207,-28.320,0
5.953,-32.715,-0.977,-21.973,-34.668,0
5.957,-38.574,-3.906,-21.484,-39.062,0
5.961,-38.086,-1.953,-17.090,-45.898,NaN
5.965,-41.016,-8.301,-24.902,-33.691,NaN
5.969,-46.387,-10.254,-31.250,-32.227,NaN
5.964,-47.363,-8.789,-24.902,-45.410,0
5.968,-47.363,-17.578,-26.855,-56.152,0
5.972,-52.734,-15.625,-21.973,-62.988,NaN
5.976,-42.969,-23.926,-17.090,-56.152,0
5.980,-34.180,-28.809,-13.184,-54.688,0
5.984,-42.480,-10.254,-8.789,-59.570,NaN
5.987,-47.852,-9.766,-7.812,-61.035,0
5.991,-46.875,-17.578,-9.277,-43.457,0
5.995,-44.434,-16.113,-16.602,-34.180,0
5.999,-45.898,-15.137,-19.043,-33.691,0
6.003,-47.363,-18.555,-25.879,-35.645,NaN
6.007,-38.574,-16.113,-32.715,-39.551,0
6.019,-33.691,-21.973,-27.832,-29.297,0
6.023,-41.016,-26.367,-25.879,-23.926,NaN
6.027,-33.203,-20.020,-28.809,-27.344,0
6.031,-21.484,-31.250,-20.020,-26.367,0
6.035,-13.184,-29.785,-24.414,-15.137,0
6.039,-8.789,-20.508,-34.180,-5.859,NaN
6.042,-28.809,-27.344,-26.855,-30.273,0
6.046,-36.621,-21.973,-19.531,-57.617,0
6.050,-39.062,-15.625,-13.184,-63.965,0
6.054,-42.969,-13.672,-11.230,-50.293,0
6.058,-35.645,-14.648,-19.531,-34.668,NaN
6.062,-46.387,-18.555,-31.738,-42.969,0
6.075,-49.316,-27.832,-31.250,-52.246,0
6.079,-41.504,-35.645,-24.902,-43.945,0
6.083,-48.340,-39.551,-21.484,-40.039,NaN
6.087,-43.457,-40.527,-19.531,-42.480,0
6.091,-34.668,-29.785,-19.531,-41.992,0
6.095,-42.969,-26.367,-15.137,-46.387,0
6.098,-51.758,-31.738,-5.371,-44.922,NaN
6.102,-57.129,-30.762,-14.160,-43.945,0
6.106,-54.688,-31.738,-16.602,-43.945,0
6.110,-46.387,-33.203,-19.531,-41.016,0
6.114,-44.922,-25.879,-38.574,-37.598,0
6.118,-44.922,-27.832,-35.156,-33.203,NaN
6.114,-36.621,-34.668,-23.438,-20.996,NaN
6.118,-37.598,-27.344,-15.137,-19.043,NaN
6.122,-44.922,-19.043,-18.555,-27.832,0
6.126,-51.270,-19.531,-33.203,-21.484,0
6.130,-54.688,-23.926,-35.645,-17.578,0
6.134,-49.316,-29.785,-28.809,-22.461,NaN
6.137,-46.387,-29.297,-24.902,-19.531,0
6.141,-41.504,-21.973,-31.738,-16.113,0
6.145,-30.762,-23.438,-31.250,-20.020,0
6.149,-35.645,-22.461,-29.785,-16.113,0
6.153,-38.574,-17.578,-27.832,-12.207,NaN
6.157,-33.203,-17.090,-27.832,-18.066,0
6.152,-31.250,-16.602,-24.414,-19.531,NaN
6.156,-28.320,-5.859,-13.672,-26.367,NaN
6.160,-26.367,0.000,-22.461,-25.391,NaN
6.164,-30.762,0.977,-30.762,-11.719,0
6.168,-38.086,-0.977,-31.250,-22.461,0
6.172,-38.574,-6.348,-30.762,-36.621,0
6.175,-37.598,-8.789,-27.832,-30.273,NaN
6.179,-34.180,-12.695,-26.367,-23.926,0
6.183,-34.668,-14.160,-27.832,-26.855,0
6.187,-36.133,-8.789,-20.508,-34.668,NaN
6.191,-35.156,-0.977,-19.531,-32.227,0
6.195,-33.691,0.977,-19.043,-22.461,0
6.208,-28.320,3.418,-17.090,-37.109,0
6.212,-35.156,-4.395,-27.344,-50.293,NaN
6.216,-35.156,-7.812,-31.738,-40.527,0
6.220,-27.832,-1.953,-32.227,-43.945,0
6.224,-26.367,-0.488,-37.598,-52.734,0
6.228,-18.555,6.836,-25.879,-54.688,0
6.231,-19.043,10.742,-11.230,-52.734,NaN
6.235,-18.555,10.742,-14.160,-52.246,0
6.239,-15.137,6.348,-28.809,-45.410,0
6.243,-19.531,0.488,-36.621,-33.203,0
6.247,-21.484,-4.395,-26.855,-24.902,NaN
6.251,-19.043,-2.441,-25.879,-23.926,0
6.263,-16.113,8.301,-26.367,-29.785,0
6.267,-20.508,14.160,-25.879,-37.598,NaN
6.271,-23.438,4.395,-23.438,-34.668,0
6.275,-5.859,-19.043,-15.625,-16.602,0
6.279,1.953,-12.207,-29.785,-17.090,0
6.283,-11.230,16.602,-30.273,-36.133,0
6.286,-26.855,17.090,-24.414,-54.688,NaN
6.290,-19.043,15.137,-29.785,-45.410,0
6.294,-1.465,15.625,-31.738,-27.832,0
6.298,2.441,12.695,-35.645,-25.391,0
6.302,10.254,13.672,-43.945,-16.113,NaN
6.306,11.230,11.230,-52.246,-12.207,NaN
6.300,15.625,14.160,-60.059,-11.230,NaN
6.304,17.578,23.926,-65.918,-12.695,0
6.308,10.254,28.809,-63.477,-17.578,0
6.312,8.301,28.320,-58.594,-30.762,NaN
6.316,0.488,31.738,-59.570,-40.039,0
6.320,-1.953,36.621,-59.082,-30.273,NaN
6.323,8.789,40.039,-54.199,-28.809,0
6.327,5.859,34.180,-57.617,-41.992,0
6.331,4.883,24.902,-66.406,-45.410,NaN
6.335,16.113,26.855,-67.871,-33.691,0
6.339,15.137,23.926,-60.547,-25.391,0
6.343,9.766,20.508,-65.918,-35.645,0
6.338,10.742,24.902,-72.754,-41.992,NaN
6.342,0.000,20.020,-62.988,-40.527,NaN
6.346,-0.977,15.137,-47.363,-44.922,NaN
6.350,5.859,21.484,-36.621,-52.246,0
6.354,0.977,23.926,-33.691,-51.270,0
6.358,2.441,22.461,-35.156,-40.039,NaN
6.361,5.371,21.484,-40.039,-38.574,0
6.365,-5.371,20.996,-38.086,-31.738,0
6.369,-20.508,19.043,-32.227,-25.879,NaN
6.373,-14.648,9.277,-41.504,-33.203,0
6.377,-8.789,-0.977,-44.922,-32.715,0
6.381,-16.602,-2.930,-34.180,-41.992,0
6.394,-19.531,4.883,-34.180,-50.293,0
6.398,-18.066,7.812,-35.156,-49.805,0
6.402,-14.648,7.812,-38.574,-46.387,0
6.406,-13.184,18.555,-41.016,-38.574,NaN
6.410,-18.066,9.277,-39.062,-44.434,0
6.414,-18.066,1.953,-38.086,-54.199,0
6.417,-14.160,11.719,-33.203,-52.246,0
6.421,-11.230,15.137,-21.973,-47.363,NaN
6.425,-11.719,14.648,-22.461,-47.363,0
6.429,-12.207,4.883,-28.809,-44.922,0
6.433,-12.207,2.930,-34.668,-30.762,0
6.437,-13.672,0.000,-34.668,-25.391,0
6.451,-13.184,-9.766,-33.203,-38.086,0
6.455,-14.648,-12.207,-28.320,-42.969,0
6.459,-10.742,-0.977,-30.273,-40.039,0
6.463,-13.672,8.789,-50.781,-42.480,0
6.467,-17.578,8.789,-51.270,-41.992,0
6.471,-17.090,9.277,-29.785,-39.062,NaN
6.474,-21.973,2.930,-16.602,-47.363,0
6.478,-25.391,6.348,-25.879,-40.039,0
6.482,-23.438,10.254,-40.527,-33.691,0
6.486,-21.484,4.395,-48.340,-39.062,NaN
6.490,-17.090,-7.324,-35.156,-35.645,NaN
6.494,-15.625,-9.766,-11.719,-37.598,0
6.488,-15.137,0.977,-9.766,-31.738,0
6.492,-13.184,2.441,-17.090,-33.203,NaN
6.496,-16.113,5.371,-21.973,-38.574,NaN
6.500,-21.484,4.883,-27.344,-39.551,0
6.504,-20.020,-1.953,-31.250,-39.062,0
6.508,-19.043,-0.977,-36.621,-45.410,0
6.511,-21.973,-0.977,-43.945,-45.410,NaN
6.515,-21.484,2.930,-43.457,-39.551,0
6.519,-20.508,0.488,-33.203,-46.387,0
6.523,-18.555,-3.418,-29.785,-48.340,0
6.527,-28.809,-6.836,-30.762,-34.668,NaN
6.531,-44.434,-14.648,-32.715,-37.598,NaN
6.525,-41.992,-19.043,-35.645,-51.758,NaN
6.529,-34.180,-12.695,-37.598,-40.527,0
6.533,-29.785,-22.461,-34.180,-29.785,0
6.537,-26.855,-20.020,-30.273,-36.133,NaN
6.541,-21.973,-4.883,-34.180,-37.109,0
6.545,-22.461,-7.812,-27.832,-29.297,0
6.548,-24.414,-13.184,-24.902,-30.273,NaN
6.552,-26.367,-19.043,-28.809,-22.461,0
6.556,-41.016,-14.160,-29.297,-20.996,0
6.560,-42.480,-8.301,-33.203,-25.879,0
6.564,-29.297,-9.766,-30.273,-20.020,0
6.568,-29.297,-0.977,-19.531,-24.414,0
6.581,-37.109,-2.930,-20.996,-35.156,0
6.585,-38.086,-8.301,-27.832,-36.133,0
6.589,-36.133,-13.672,-23.438,-28.809,0
6.593,-33.691,-22.949,-23.438,-23.926,NaN
6.597,-33.691,-20.020,-37.109,-22.949,0
6.601,-40.039,-20.020,-36.621,-19.531,0
6.604,-46.387,-23.926,-28.320,-10.742,0
6.608,-51.758,-26.367,-25.391,-4.883,NaN
6.612,-51.270,-25.879,-21.484,-11.719,0
6.616,-44.434,-26.367,-28.809,-13.184,0
6.620,-47.852,-29.785,-37.598,0.488,0
6.624,-49.805,-19.043,-34.180,1.953,NaN
6.624,-44.434,-13.184,-30.762,-16.113,0
6.628,-45.898,-14.648,-28.809,-19.531,NaN
6.632,-43.945,-18.066,-27.832,-3.418,0
6.636,-40.527,-28.320,-18.066,1.465,0
6.640,-37.598,-23.926,-25.879,-8.301,0
6.644,-21.973,-13.672,-34.180,5.371,NaN
6.647,-28.809,-13.672,-19.043,-1.953,0
6.651,-47.852,-17.090,-19.531,-16.602,0
6.655,-52.734,-26.855,-19.531,-19.043,0
6.659,-55.664,-29.785,-2.930,-24.414,0
6.663,-63.477,-33.691,-0.488,-30.273,NaN
6.667,-67.871,-41.016,-3.418,-39.551,0
6.675,-71.289,-37.109,-2.441,-35.156,0
6.679,-77.637,-34.180,-15.137,-45.898,0
6.683,-62.012,-33.691,-21.484,-55.176,0
6.687,-56.641,-32.227,-20.996,-46.875,NaN
6.691,-62.012,-40.527,-13.672,-40.039,0
6.695,-59.082,-41.992,-9.277,-35.156,0
6.698,-65.430,-33.203,-26.855,-45.410,0
6.702,-65.918,-28.320,-30.762,-48.340,NaN
6.706,-60.547,-27.344,-20.020,-41.504,0
6.710,-57.617,-29.297,-14.648,-35.156,0
6.714,-62.012,-37.109,-21.973,-29.297,0
6.718,-57.617,-36.133,-33.203,-38.574,NaN
6.714,-49.805,-20.508,-30.762,-41.992,NaN
6.718,-46.387,-18.066,-29.785,-41.504,NaN
6.722,-42.969,-21.973,-27.344,-39.551,0
6.726,-42.969,-21.484,-34.180,-40.527,0
6.730,-47.363,-20.508,-44.922,-37.598,0
6.734,-39.551,-19.531,-44.922,-33.203,0
6.737,-19.531,-24.414,-35.645,-34.668,NaN
6.741,-28.320,-20.020,-29.785,-26.367,0
6.745,-42.969,-8.301,-28.809,-22.949,0
6.749,-27.344,-2.441,-16.602,-21.973,0
6.753,-23.438,-4.395,-20.020,-20.996,0
6.757,-36.621,-14.160,-22.461,-31.250,0
6.769,-33.691,-24.414,-20.020,-24.902,0
6.773,-24.414,-21.973,-27.832,-20.020,NaN
6.777,-32.227,-14.160,-33.203,-27.832,0
6.781,-40.527,-14.160,-39.551,-30.762,0
6.785,-32.227,-8.789,-38.086,-37.598,0
6.789,-36.133,-11.230,-29.785,-45.410,0
6.792,-40.527,-18.066,-32.715,-47.852,NaN
6.796,-30.762,-14.160,-31.738,-47.852,0
6.800,-37.598,-10.254,-31.250,-44.434,0
6.804,-42.969,-12.695,-32.715,-42.969,0
6.808,-43.457,-12.695,-27.832,-33.691,NaN
6.812,-48.340,-10.254,-28.809,-28.809,NaN
6.807,-41.992,-12.695,-25.391,-41.504,NaN
6.811,-44.922,-15.137,-33.691,-50.781,0
6.815,-45.898,-17.578,-37.109,-42.480,0
6.819,-47.852,-20.508,-28.809,-33.203,0
6.823,-48.828,-19.531,-33.691,-34.180,NaN
6.827,-33.691,-19.043,-41.016,-31.250,0
6.830,-37.109,-18.066,-42.969,-31.250,0
6.834,-40.039,-22.461,-43.945,-34.180,0
6.838,-36.133,-17.090,-34.180,-26.855,NaN
6.842,-35.156,-5.371,-25.879,-30.273,0
6.846,-32.715,-8.301,-21.973,-30.273,0
6.850,-36.133,-13.672,-14.160,-26.367,0
6.863,-32.715,-11.719,-17.090,-30.762,0
6.867,-27.344,-11.719,-24.414,-36.133,0
6.871,-21.973,-13.672,-26.367,-31.738,0
6.875,-28.320,-14.160,-31.738,-25.391,0
6.879,-39.062,-12.207,-40.039,-28.320,NaN
6.883,-35.156,-9.766,-35.645,-22.949,0
6.886,-35.645,-5.859,-28.320,-20.020,0
6.890,-16.602,-5.371,-33.203,-5.859,NaN
6.894,-6.348,-17.578,-40.527,-1.953,0
6.898,-35.645,-16.602,-39.062,-24.902,NaN
6.902,-52.246,-10.742,-16.113,-28.320,NaN
6.906,-46.875,-19.531,-6.836,-29.785,NaN
6.900,-46.387,-19.043,-9.766,-33.203,0
6.904,-53.711,-13.672,-7.812,-40.039,0
6.908,-51.270,-19.043,-11.230,-38.086,0
6.912,-52.734,-27.344,-15.137,-43.945,NaN
6.916,-52.734,-30.762,-10.742,-41.992,0
6.920,-55.664,-32.715,-6.836,-40.039,NaN
6.923,-50.293,-32.715,-7.324,-36.621,0
6.927,-32.715,-31.250,-9.766,-25.391,0
6.931,-48.340,-29.785,-11.719,-32.227,NaN
6.935,-64.453,-26.367,-13.672,-37.598,0
6.939,-57.129,-30.762,-23.926,-31.250,0
6.943,-54.199,-38.574,-18.066,-20.508,0
6.956,-40.039,-35.645,-4.395,-16.602,0
6.960,-41.504,-24.902,-9.277,-30.762,0
6.964,-50.293,-21.973,-18.555,-47.363,0
6.968,-40.527,-16.113,-26.855,-49.805,0
6.972,-36.621,-5.859,-32.227,-43.457,0
6.976,-34.668,-2.441,-29.297,-31.738,NaN
6.979,-31.738,-0.488,-23.926,-29.297,0
6.983,-36.621,-0.977,-19.043,-26.855,0
6.987,-40.527,-10.254,-16.602,-26.367,0
6.991,-33.203,-13.672,-19.043,-31.250,NaN
6.995,-28.320,-11.719,-27.344,-28.320,NaN
6.999,-34.180,-9.277,-24.414,-31.738,NaN
6.994,-30.273,-14.160,-23.438,-34.180,0
6.998,-23.438,-27.344,-20.996,-34.668,0
7.002,-30.273,-16.602,-15.137,-41.016,0
7.006,-35.156,0.977,-19.043,-40.527,NaN
7.010,-31.738,3.906,-19.531,-44.922,0
7.014,-28.320,2.930,-12.695,-47.852,0
7.017,-27.344,1.465,-16.113,-45.410,0
7.021,-22.461,-3.418,-24.414,-42.969,0
7.025,-20.508,-14.160,-25.391,-42.969,NaN
7.029,-13.672,-13.672,-21.973,-45.898,0
7.033,-7.812,-1.953,-24.414,-39.062,0
7.037,-20.508,0.000,-28.320,-45.410,0
7.050,-27.832,-4.883,-25.879,-42.480,0
7.054,-20.996,0.488,-24.414,-31.250,0
7.058,-22.461,-1.953,-23.926,-40.039,0
7.062,-21.973,-14.648,-20.508,-41.992,0
7.066,-21.973,-17.090,-20.020,-43.457,NaN
7.070,-32.227,-11.230,-22.949,-53.223,0
7.073,-30.273,-7.324,-28.809,-56.641,0
7.077,-23.438,-6.348,-23.926,-53.223,0
7.081,-25.879,-2.930,-26.855,-58.105,NaN
7.085,-24.902,-6.836,-41.016,-58.105,0
7.089,-14.160,-8.789,-38.086,-45.410,NaN
7.093,-18.555,-6.348,-36.621,-54.199,0
7.089,-38.086,-5.859,-40.039,-64.941,0
7.093,-39.551,-3.906,-36.133,-53.711,NaN
7.097,-36.621,0.488,-22.949,-35.156,0
7.101,-44.922,-7.324,-20.020,-38.574,NaN
7.105,-50.781,-16.602,-34.668,-53.223,0
7.109,-48.340,-14.648,-45.410,-43.945,0
7.112,-39.551,-18.555,-41.992,-37.598,0
7.116,-33.203,-13.184,-27.344,-29.785,NaN
7.120,-30.762,-9.766,-22.461,-33.691,0
7.124,-30.762,-9.277,-24.902,-42.480,0
7.128,-31.738,-5.371,-30.273,-32.227,0
7.132,-36.621,-14.648,-33.691,-30.762,0
7.144,-35.156,-17.090,-25.879,-30.762,0
7.148,-32.227,-2.930,-25.391,-30.762,NaN
7.152,-30.762,0.977,-30.762,-35.156,NaN
7.156,-33.203,-7.324,-39.062,-39.062,0
7.160,-34.668,-11.719,-43.945,-38.574,NaN
7.164,-43.457,-23.438,-36.133,-42.480,0
7.167,-46.387,-17.090,-32.715,-46.387,0
7.171,-41.016,-3.906,-39.551,-45.410,NaN
7.175,-48.340,-1.953,-38.086,-50.293,0
7.179,-50.293,0.488,-34.180,-46.875,0
7.183,-44.922,-3.906,-42.480,-41.992,0
7.187,-45.410,-3.418,-40.527,-48.340,NaN
7.182,-48.828,-2.930,-24.414,-56.641,NaN
7.186,-46.387,-6.348,-29.297,-60.059,NaN
7.190,-45.898,-14.648,-42.969,-59.082,0
7.194,-45.898,-20.020,-44.922,-47.852,0
7.198,-47.852,-18.555,-34.668,-46.387,0
7.202,-47.363,-19.043,-33.203,-56.152,NaN
7.205,-50.781,-21.484,-30.273,-54.199,0
7.209,-57.129,-16.113,-27.344,-38.574,0
7.213,-54.688,-23.438,-44.434,-33.691,0
7.217,-41.016,-28.809,-45.410,-40.039,NaN
7.221,-38.086,-16.113,-25.391,-33.203,0
7.225,-37.109,-12.207,-18.555,-28.809,0
7.238,-32.715,-19.531,-17.578,-28.809,0
7.242,-28.809,-17.578,-25.879,-29.297,NaN
7.246,-27.832,-13.184,-33.691,-25.391,0
7.250,-35.645,-18.066,-33.203,-20.020,0
7.254,-34.180,-20.508,-31.250,-21.484,0
7.258,-34.668,-32.227,-20.996,-10.742,NaN
7.261,-38.086,-35.156,-16.113,-1.465,0
7.265,-45.410,-20.508,-26.855,-32.227,0
7.269,-44.434,-22.461,-31.250,-42.969,NaN
7.273,-39.062,-15.625,-35.645,-29.785,0
7.277,-36.621,-4.395,-39.551,-26.367,NaN
7.281,-35.156,-14.648,-41.504,-23.438,NaN
7.276,-28.320,-19.531,-41.992,-21.973,NaN
7.280,-12.207,-17.090,-38.086,-20.020,0
7.284,-12.207,-18.066,-41.504,-24.414,0
7.288,-19.531,-22.949,-44.434,-18.066,NaN
7.292,-21.484,-27.344,-47.363,-18.066,0
7.296,-21.973,-24.414,-42.969,-17.090,0
7.299,-30.273,-16.602,-33.691,-20.508,0
7.303,-34.668,-10.254,-23.438,-11.230,NaN
7.307,-29.297,-15.137,-17.578,-0.488,0
7.311,-32.715,-23.926,-19.043,-13.672,0
7.315,-30.762,-23.926,-23.438,-12.695,0
7.319,-32.227,-23.926,-29.297,-10.742,0
7.333,-35.645,-23.438,-28.320,-15.137,0
7.337,-30.273,-24.414,-28.320,-13.672,0
7.341,-26.367,-24.902,-30.273,-13.672,0
7.345,-35.156,-13.672,-28.809,-16.602,0
7.349,-31.250,-8.301,-27.344,-21.973,NaN
7.353,-22.949,-16.602,-23.926,-23.926,0
7.356,-31.738,-17.578,-20.508,-12.695,0
7.360,-32.715,-20.020,-18.066,-19.531,0
7.364,-33.203,-21.484,-19.531,-41.016,0
7.368,-32.715,-36.621,-17.090,-43.457,NaN
7.372,-39.062,-42.969,-24.902,-44.922,0
7.376,-49.805,-21.973,-41.016,-51.270,0
7.369,-52.734,-10.254,-39.062,-55.176,NaN
7.373,-40.039,-13.184,-20.996,-56.152,NaN
7.377,-25.879,-19.043,-24.902,-45.898,NaN
7.381,-26.367,-15.137,-36.133,-38.086,0
7.385,-35.645,-13.184,-30.762,-49.316,0
7.389,-41.992,-12.695,-21.484,-49.316,NaN
7.392,-40.039,-15.137,-23.438,-47.852,0
7.396,-48.340,-17.578,-23.926,-44.434,0
7.400,-60.059,-17.090,-13.184,-39.062,0
7.404,-61.035,-22.949,-4.395,-51.758,0
7.408,-58.105,-24.902,-12.695,-54.199,NaN
7.412,-56.152,-18.555,-35.645,-52.734,0
7.425,-54.199,-17.090,-36.621,-52.246,0
7.429,-51.758,-19.043,-27.832,-45.410,0
7.433,-50.781,-20.996,-22.461,-33.691,NaN
7.437,-44.434,-23.926,-16.602,-36.621,0
7.441,-36.621,-21.484,-17.578,-35.156,NaN
7.445,-34.668,-15.625,-25.391,-25.879,0
7.448,-33.203,-23.438,-23.438,-24.902,0
7.452,-25.879,-27.344,-24.414,-22.461,NaN
7.456,-25.879,-16.602,-28.320,-24.414,0
7.460,-34.668,-18.555,-33.203,-23.438,0
7.464,-25.391,-26.367,-36.621,-12.207,0
7.468,-23.438,-31.738,-37.109,-16.602,NaN
7.463,-25.391,-30.273,-31.738,-27.344,NaN
7.467,-27.344,-10.254,-22.949,-18.555,NaN
7.471,-39.062,0.977,-20.020,-15.137,0
7.475,-37.598,-7.324,-20.996,-18.066,0
7.479,-34.180,-15.625,-26.855,-23.926,NaN
7.483,-41.504,-21.973,-40.527,-27.344,0
7.486,-40.527,-21.484,-44.922,-24.902,0
7.490,-26.367,-24.414,-30.762,-12.695,0
7.494,-32.227,-16.113,-23.438,-9.277,0
7.498,-46.875,-2.441,-35.645,-21.973,NaN
7.502,-46.387,-7.324,-36.133,-18.555,0
7.506,-44.434,-8.789,-22.461,-18.066,0
7.519,-40.039,-14.160,-26.367,-26.367,0
7.523,-39.062,-10.742,-29.297,-27.344,NaN
7.527,-41.016,-2.441,-17.578,-20.996,0
7.531,-39.551,-11.719,-12.695,-18.066,0
7.535,-41.504,-17.090,-26.367,-29.785,0
7.539,-37.598,-13.672,-28.809,-29.297,NaN
7.542,-32.715,-13.672,-30.273,-26.855,0
7.546,-32.715,-13.184,-42.969,-32.227,0
7.550,-24.902,-5.371,-40.039,-37.109,0
7.554,-19.043,-2.930,-27.344,-37.109,0
7.558,-22.461,-6.836,-24.414,-31.738,NaN
7.562,-23.926,-18.066,-32.715,-35.156,NaN
7.558,-26.367,-23.438,-44.434,-42.969,NaN
7.562,-22.461,-15.137,-44.434,-44.434,0
7.566,-16.113,-12.695,-35.156,-41.504,0
7.570,-17.090,-11.230,-41.504,-39.551,0
7.574,-21.484,-10.742,-43.457,-42.480,0
7.578,-24.414,-10.742,-37.109,-36.621,NaN
7.581,-26.855,-13.672,-43.457,-27.344,0
7.585,-25.879,-23.926,-48.828,-23.438,0
7.589,-31.738,-23.438,-35.645,-24.414,0
7.593,-46.387,-22.461,-20.996,-26.855,NaN
7.597,-46.875,-22.949,-9.277,-26.367,0
7.601,-43.945,-23.438,-10.254,-31.738,0
7.613,-45.898,-31.250,-24.902,-39.551,0
7.617,-46.875,-25.879,-29.297,-35.645,0
7.621,-53.711,-21.484,-30.273,-31.250,0
7.625,-54.199,-31.250,-36.621,-41.504,0
7.629,-50.781,-34.180,-32.715,-46.387,NaN
7.633,-65.430,-30.273,-24.414,-34.668,0
7.636,-70.801,-29.297,-20.996,-34.668,0
7.640,-57.617,-23.438,-31.250,-41.016,0
7.644,-46.387,-23.926,-44.922,-41.504,NaN
7.648,-30.762,-24.414,-36.621,-37.598,0
7.652,-25.879,-20.996,-26.367,-31.250,0
7.656,-33.203,-22.949,-19.531,-30.273,0
7.669,-31.738,-23.438,-20.996,-32.227,0
7.673,-30.273,-29.785,-31.738,-40.527,0
7.677,-21.484,-23.926,-38.574,-44.434,NaN
7.681,-16.113,-8.301,-36.133,-33.691,0
7.685,-23.926,-9.766,-28.320,-20.996,0
7.689,-46.387,-25.879,-29.785,-21.973,0
7.692,-47.363,-20.508,-36.621,-30.762,0
7.696,-19.531,-10.742,-38.574,-10.254,NaN
7.700,-25.879,-18.066,-31.250,-8.301,0
7.704,-43.945,-16.602,-20.996,-33.691,0
7.708,-46.387,-17.090,-19.531,-41.016,NaN
7.712,-43.457,-20.508,-19.043,-37.109,NaN
7.706,-45.898,-22.461,-18.555,-29.785,NaN
7.710,-47.363,-30.273,-20.508,-37.109,0
7.714,-42.480,-38.086,-27.344,-47.363,0
7.718,-50.781,-41.504,-34.180,-45.898,0
7.722,-55.664,-47.852,-23.926,-39.551,NaN
7.726,-60.547,-50.293,-19.531,-40.039,0
7.729,-62.012,-45.898,-14.648,-37.109,0
7.733,-53.223,-44.434,-11.719,-23.438,0
7.737,-49.805,-51.270,-19.043,-21.484,0
7.741,-46.875,-54.199,-17.578,-24.902,NaN
7.745,-57.617,-44.434,-14.648,-22.949,0
7.749,-64.941,-37.598,-15.625,-21.484,0
7.746,-59.082,-38.086,-13.184,-19.531,NaN
7.750,-59.570,-38.086,-23.438,-16.113,NaN
7.754,-56.641,-35.156,-28.320,-19.043,0
7.758,-53.223,-36.621,-19.043,-23.926,0
7.762,-42.969,-34.180,-19.531,-15.625,NaN
7.766,-41.504,-29.785,-31.250,-10.254,0
7.769,-39.551,-34.180,-37.109,-15.625,0
7.773,-27.832,-37.598,-36.133,-13.672,0
7.777,-30.762,-44.922,-29.297,-15.137,0
7.781,-37.109,-45.410,-22.949,-32.715,NaN
7.785,-29.785,-20.996,-18.555,-40.039,0
7.789,-19.531,-9.766,-20.508,-41.504,0
7.801,-12.207,-14.648,-27.832,-55.664,0
7.805,-17.578,-12.695,-36.133,-62.988,0
7.809,-33.691,-19.043,-33.691,-48.340,0
7.813,-47.363,-21.484,-28.320,-38.574,0
7.817,-49.805,-14.648,-38.086,-45.898,NaN
7.821,-47.363,-12.207,-38.574,-41.992,0
7.824,-41.992,-20.020,-42.480,-36.133,0
7.828,-41.992,-30.762,-55.176,-46.387,0
7.832,-40.039,-18.066,-41.504,-56.152,NaN
7.836,-33.203,-10.742,-20.020,-46.387,0
7.840,-40.527,-14.160,-13.672,-42.480,NaN
7.844,-47.363,-16.113,-24.414,-52.246,NaN
7.838,-45.410,-17.090,-36.133,-49.805,NaN
7.842,-39.551,-24.902,-35.645,-38.574,0
7.846,-36.133,-34.180,-40.039,-30.762,0
7.850,-31.738,-20.020,-50.293,-33.691,0
7.854,-33.203,-11.230,-50.293,-40.039,NaN
7.858,-40.039,-22.949,-38.086,-40.039,0
7.861,-43.457,-26.367,-29.297,-47.852,0
7.865,-49.316,-22.461,-38.574,-47.852,NaN
7.869,-41.992,-19.531,-47.852,-32.715,0
7.873,-32.715,-14.648,-47.852,-32.227,0
7.877,-46.875,-11.719,-42.480,-47.363,0
7.881,-49.316,-11.719,-28.809,-43.457,0
7.894,-41.504,-18.555,-39.551,-37.598,0
7.898,-38.086,-23.438,-56.641,-46.387,0
7.902,-36.621,-23.926,-39.062,-40.527,0
7.906,-29.785,-23.438,-20.020,-37.109,0
7.910,-19.043,-15.625,-24.414,-57.129,NaN
7.914,-16.113,-8.301,-28.320,-56.152,0
7.917,-27.832,-14.648,-36.133,-36.621,0
7.921,-26.855,-19.043,-36.133,-28.320,0
7.925,-24.414,-15.137,-25.879,-36.133,0
7.929,-32.715,-17.578,-31.738,-35.156,NaN
7.933,-36.621,-17.090,-40.039,-20.996,0
7.937,-39.551,-15.625,-35.645,-20.508,0
7.931,-26.367,-17.578,-36.133,-36.133,NaN
7.935,-25.879,-16.113,-39.551,-44.434,NaN
7.939,-36.621,-15.137,-30.762,-37.598,NaN
7.943,-37.109,-15.137,-24.902,-32.715,0
7.947,-35.156,-29.785,-35.645,-36.621,0
7.951,-22.949,-33.203,-47.363,-40.527,0
7.954,-21.484,-8.301,-34.668,-39.551,NaN
7.958,-27.832,-9.766,-22.461,-26.855,0
7.962,-29.297,-30.273,-25.879,-22.461,0
7.966,-30.762,-27.344,-27.832,-29.297,0
7.970,-27.832,-15.625,-27.344,-26.855,0
7.974,-22.461,-14.160,-36.621,-30.762,0
7.988,-27.344,-17.578,-39.551,-19.531,0
7.992,-41.016,-25.879,-34.180,-19.043,0
7.996,-46.387,-28.320,-39.062,-30.762,0
8.000,-36.133,-35.645,-39.551,-23.438,NaN
8.004,-27.832,-37.109,-31.738,-15.625,0
8.008,-27.344,-28.809,-36.621,-13.672,0
8.011,-29.785,-22.949,-52.734,-16.113,0
8.015,-36.133,-16.602,-50.781,-18.066,NaN
8.019,-40.039,-16.113,-35.645,-20.020,0
8.023,-36.621,-14.160,-30.273,-21.484,0
8.027,-31.738,-7.324,-23.926,-15.625,NaN
8.031,-33.203,-13.184,-17.578,-18.555,NaN
8.026,-36.621,-18.555,-25.391,-25.879,NaN
8.030,-32.227,-11.719,-34.180,-35.645,0
8.034,-24.414,-15.625,-31.738,-22.949,0
8.038,-20.508,-20.996,-29.785,-6.836,0
8.042,-29.297,-13.184,-39.551,-28.320,NaN
8.046,-36.621,-18.066,-35.645,-36.133,0
8.049,-35.645,-20.508,-25.391,-34.180,0
8.053,-49.805,-14.160,-33.691,-32.715,0
8.057,-54.199,-24.414,-40.527,-23.438,NaN
8.061,-52.246,-30.273,-39.062,-20.508,0
8.065,-42.969,-27.832,-34.180,-18.555,0
8.069,-38.086,-27.832,-30.273,-17.578,0
8.082,-43.457,-22.949,-29.297,-19.043,0
8.086,-49.316,-20.508,-25.879,-26.367,0
8.090,-45.898,-20.508,-26.367,-33.203,0
8.094,-37.109,-18.555,-28.320,-31.250,0
8.098,-33.203,-23.926,-32.227,-29.785,NaN
8.102,-36.621,-28.809,-36.621,-22.949,0
8.105,-38.086,-19.043,-33.691,-30.273,0
8.109,-31.250,-19.531,-30.762,-40.039,0
8.113,-27.344,-20.020,-33.203,-29.785,0
8.117,-35.156,-17.090,-22.949,-23.438,NaN
8.121,-43.945,-28.809,-10.742,-16.602,NaN
8.125,-38.574,-26.367,-14.648,-21.973,0
8.119,-39.551,-11.719,-27.832,-31.738,0
8.123,-52.246,-9.766,-27.832,-26.367,NaN
8.127,-50.781,-12.695,-12.207,-18.066,NaN
8.131,-44.922,-15.625,-20.020,-24.902,0
8.135,-43.457,-23.926,-31.738,-35.645,0
8.139,-44.434,-27.344,-29.785,-34.668,0
8.142,-49.805,-24.414,-22.461,-25.879,NaN
8.146,-44.434,-10.742,-23.438,-20.508,0
8.150,-31.250,-14.160,-36.621,-20.508,0
8.154,-25.391,-21.973,-37.109,-23.926,0
8.158,-25.879,-26.367,-26.855,-33.203,0
8.162,-27.344,-29.297,-18.066,-27.832,0
8.175,-38.086,-22.949,-28.320,-32.227,0
8.179,-52.734,-23.926,-24.414,-41.504,0
8.183,-39.551,-25.391,-7.812,-30.273,0
8.187,-38.086,-27.832,-15.625,-32.715,0
8.191,-53.711,-30.273,-27.832,-38.086,NaN
8.195,-50.781,-23.438,-29.785,-35.645,NaN
8.198,-47.852,-23.438,-39.551,-47.363,0
8.202,-41.504,-29.297,-45.898,-47.363,0
8.206,-40.039,-22.949,-40.039,-41.504,0
8.210,-39.062,-19.531,-32.227,-39.551,NaN
8.214,-40.527,-24.414,-33.203,-29.785,NaN
8.218,-44.922,-25.879,-30.273,-34.668,0
8.214,-43.457,-34.668,-27.832,-49.316,0
8.218,-44.922,-41.016,-32.227,-57.129,NaN
8.222,-48.828,-36.133,-34.668,-61.523,NaN
8.226,-49.805,-35.156,-28.320,-53.711,0
8.230,-42.969,-33.691,-37.109,-45.898,0
8.234,-41.992,-33.691,-45.898,-44.922,0
8.237,-39.062,-36.133,-54.199,-47.363,NaN
8.241,-54.688,-35.156,-47.852,-39.062,0
8.245,-60.547,-23.926,-25.391,-24.414,0
8.249,-55.176,-20.508,-27.344,-30.273,0
8.253,-53.223,-25.391,-34.180,-34.668,NaN
8.257,-38.574,-22.461,-33.203,-20.508,0
8.270,-30.762,-19.531,-32.227,-14.160,0
8.274,-42.480,-20.020,-30.762,-31.738,0
8.278,-50.293,-24.414,-22.949,-41.016,NaN
8.282,-50.781,-25.391,-15.137,-33.203,0
8.286,-45.898,-22.461,-28.809,-35.156,0
8.290,-36.621,-28.809,-34.668,-25.879,0
8.293,-43.457,-31.738,-25.879,-23.438,0
8.297,-48.340,-30.762,-23.926,-39.062,NaN
8.301,-47.852,-31.738,-17.090,-38.086,0
8.305,-47.363,-25.391,-20.508,-32.715,0
8.309,-44.434,-24.902,-27.344,-33.203,0
8.313,-37.109,-25.879,-34.180,-43.945,NaN
8.307,-34.180,-26.367,-39.062,-43.945,NaN
8.311,-41.992,-35.645,-30.273,-27.344,NaN
8.315,-48.340,-31.250,-32.227,-26.367,0
8.319,-39.551,-16.113,-38.574,-30.273,0
8.323,-31.250,-13.672,-33.203,-24.902,NaN
8.327,-39.062,-14.648,-39.551,-24.414,0
8.330,-47.363,-14.160,-37.598,-29.785,0
8.334,-52.246,-18.066,-27.832,-33.691,0
8.338,-62.988,-14.160,-24.902,-34.668,0
8.342,-55.664,-14.160,-23.926,-38.086,NaN
8.346,-40.527,-14.648,-35.156,-41.992,0
8.350,-45.898,-17.578,-26.367,-35.645,0
8.364,-42.480,-17.090,-10.254,-30.762,0
8.368,-36.133,-15.625,-17.578,-35.156,0
8.372,-36.621,-14.160,-26.367,-22.949,NaN
8.376,-39.551,-9.277,-21.973,-18.555,0
8.380,-39.062,-17.090,-18.066,-29.297,0
8.384,-37.598,-23.926,-19.043,-34.180,NaN
8.387,-30.273,-17.090,-26.367,-35.156,0
8.391,-41.992,-8.789,-27.832,-41.016,0
8.395,-54.688,-14.648,-36.133,-44.922,0
8.399,-51.758,-8.789,-45.410,-46.875,NaN
8.403,-44.434,0.488,-44.922,-43.457,0
8.407,-35.156,-11.719,-45.898,-41.992,0
8.400,-28.320,-18.066,-44.922,-53.223,NaN
8.404,-29.785,-10.742,-41.504,-61.523,NaN
8.408,-28.320,-10.254,-26.855,-49.805,NaN
8.412,-16.113,-9.766,-14.648,-39.551,NaN
8.416,-12.207,-15.137,-14.160,-48.340,0
8.420,-12.207,-21.973,-22.461,-51.758,0
8.423,-19.043,-14.648,-29.297,-54.199,NaN
8.427,-19.531,-6.348,-30.762,-48.828,0
8.431,-8.301,-6.348,-36.133,-42.480,0
8.435,6.348,-9.277,-31.738,-51.270,0
8.439,-0.488,-6.836,-40.039,-56.641,NaN
8.443,-31.738,-13.672,-57.129,-48.828,0
8.456,-42.480,-19.531,-34.180,-43.457,0
8.460,-38.086,-20.996,-11.719,-45.898,NaN
8.464,-32.715,-16.602,-28.809,-43.457,0
8.468,-32.227,-7.812,-35.645,-33.203,0
8.472,-30.273,-10.254,-18.555,-31.250,0
8.476,-27.832,-20.020,-12.207,-33.203,0
8.479,-27.344,-28.809,-15.625,-28.809,0
8.483,-28.809,-23.926,-17.090,-30.273,NaN
8.487,-30.273,-17.578,-26.855,-40.527,0
8.491,-27.344,-18.555,-37.598,-37.109,0
8.495,-22.949,-14.160,-31.250,-24.414,0
8.499,-21.973,-2.930,-28.809,-28.809,0
8.513,-35.156,-0.977,-30.762,-41.016,0
8.517,-36.621,-5.371,-30.273,-39.062,0
8.521,-26.367,-5.371,-28.320,-32.227,0
8.525,-21.973,-9.277,-20.996,-41.992,0
8.529,-22.461,-10.742,-21.484,-46.875,NaN
8.533,-29.297,-12.207,-31.250,-40.039,0
8.536,-19.043,-10.254,-41.992,-42.969,0
8.540,-13.672,-5.859,-48.340,-36.621,0
8.544,-23.926,-14.160,-47.363,-19.043,0
8.548,-34.668,-26.367,-31.738,-19.043,NaN
8.552,-38.574,-24.414,-27.832,-20.996,NaN
8.556,-36.133,-26.855,-41.016,-25.391,0
8.550,-51.270,-32.715,-42.480,-36.133,0
8.554,-53.711,-22.949,-40.039,-33.203,NaN
8.558,-45.410,-18.066,-37.109,-35.156,NaN
8.562,-43.945,-21.484,-29.297,-38.574,0
8.566,-40.039,-25.391,-34.668,-34.180,0
8.570,-41.504,-23.926,-47.363,-33.203,NaN
8.573,-33.691,-23.926,-50.781,-31.250,0
8.577,-28.809,-26.855,-49.316,-23.926,0
8.581,-24.902,-26.367,-38.086,-27.832,0
8.585,-13.672,-26.855,-34.180,-39.551,NaN
8.589,-19.531,-26.367,-41.504,-34.668,0
8.593,-23.926,-30.273,-24.902,-38.574,0
8.588,-13.672,-37.598,-5.371,-45.410,NaN
8.592,-16.602,-23.438,-17.090,-43.945,NaN
8.596,-31.738,-13.672,-38.086,-44.434,NaN
8.600,-44.434,-21.484,-48.340,-47.363,0
8.604,-38.574,-21.484,-41.504,-52.246,0
8.608,-31.250,-18.555,-41.504,-43.457,NaN
8.611,-25.391,-19.531,-47.363,-40.039,0
8.615,-25.879,-13.672,-34.668,-34.180,0
8.619,-36.621,-18.066,-34.668,-29.297,0
8.623,-38.574,-20.020,-46.387,-37.109,NaN
8.627,-32.715,-12.695,-36.621,-36.133,0
8.631,-24.902,-20.020,-24.414,-36.133,0
8.644,-19.043,-14.648,-26.855,-38.086,0
8.648,-20.020,-1.465,-27.344,-38.086,NaN
8.652,-22.461,-0.488,-24.414,-29.785,0
8.656,-22.461,-3.418,-19.531,-31.738,0
8.660,-27.344,-7.812,-25.391,-41.992,0
8.664,-28.809,-12.207,-38.574,-44.434,NaN
8.667,-28.809,-14.648,-44.434,-45.410,0
8.671,-29.297,-12.207,-39.062,-36.133,0
8.675,-23.438,-8.789,-47.363,-28.809,0
8.679,-18.555,-12.695,-52.246,-31.738,0
8.683,-15.625,-27.832,-37.598,-19.531,NaN
8.687,-29.297,-36.133,-27.344,-27.344,0
8.701,-42.969,-30.273,-19.531,-40.039,0
8.705,-31.250,-19.531,-19.531,-28.320,0
8.709,-21.973,-10.254,-30.762,-18.066,0
8.713,-14.648,-13.672,-37.598,-9.766,NaN
8.717,-16.113,-20.996,-36.133,-11.230,0
8.721,-25.879,-23.926,-41.016,-12.695,0
8.724,-35.645,-19.043,-36.621,-18.066,0
8.728,-35.156,-21.973,-27.832,-12.207,0
8.732,-35.645,-31.738,-26.855,-13.672,NaN
8.736,-25.391,-30.273,-24.902,-23.438,0
8.740,-12.695,-31.250,-17.578,-12.695,0
8.744,-17.090,-30.273,-16.602,-12.695,NaN
8.738,-11.230,-26.367,-27.832,-12.207,NaN
8.742,-20.508,-29.785,-41.504,-16.602,NaN
8.746,-38.086,-26.367,-53.223,-32.227,0
8.750,-38.574,-23.438,-48.340,-25.391,0
8.754,-43.457,-14.160,-30.273,-16.602,0
8.758,-47.363,-10.742,-17.090,-14.160,NaN
8.761,-41.504,-16.113,-6.836,-18.555,0
8.765,-32.227,-22.461,-1.465,-22.461,0
8.769,-39.062,-33.203,-19.043,-16.113,NaN
8.773,-45.410,-27.832,-34.180,-10.254,0
8.777,-44.922,-16.602,-30.273,-7.324,0
8.781,-44.434,-24.414,-23.926,-11.230,0
8.775,-46.387,-32.715,-27.344,-22.461,NaN
8.779,-41.504,-32.715,-37.109,-18.066,NaN
8.783,-32.227,-26.855,-32.715,-10.742,NaN
8.787,-26.855,-23.926,-21.973,-12.695,0
8.791,-34.180,-27.832,-23.438,-14.160,0
8.795,-41.504,-25.391,-31.738,-17.090,NaN
8.798,-41.016,-22.461,-35.156,-22.949,0
8.802,-39.551,-23.438,-39.551,-20.508,0
8.806,-24.902,-28.809,-29.297,-16.113,0
8.810,-33.691,-35.645,-22.461,-18.555,0
8.814,-45.898,-27.344,-25.879,-23.438,NaN
8.818,-42.969,-30.273,-31.250,-32.715,0
8.832,-46.875,-42.480,-37.598,-32.227,0
8.836,-39.551,-34.180,-27.344,-29.297,0
8.840,-37.598,-19.043,-33.691,-31.738,0
8.844,-42.969,-18.555,-43.457,-32.715,NaN
8.848,-38.086,-31.738,-26.367,-27.832,0
8.852,-32.715,-26.367,-16.602,-24.414,0
8.855,-34.180,-13.184,-23.926,-29.297,0
8.859,-40.039,-21.484,-22.949,-38.574,NaN
8.863,-42.969,-24.902,-17.578,-36.133,0
8.867,-42.480,-19.531,-21.484,-31.738,0
8.871,-34.668,-28.809,-24.902,-11.719,0
8.875,-38.574,-37.598,-38.086,-15.625,NaN
8.869,-45.410,-31.250,-43.457,-44.922,NaN
8.873,-45.898,-24.414,-37.598,-47.363,NaN
8.877,-41.016,-21.973,-29.785,-43.457,0
8.881,-36.133,-26.855,-17.578,-42.480,0
8.885,-41.016,-30.762,-15.625,-39.551,NaN
8.889,-40.039,-29.297,-20.020,-38.574,0
8.892,-39.062,-30.762,-26.855,-39.062,0
8.896,-32.715,-23.926,-36.621,-29.785,0
8.900,-32.715,-19.531,-41.504,-28.809,0
8.904,-41.992,-23.926,-42.969,-35.645,NaN
8.908,-47.363,-24.902,-43.457,-32.715,0
8.912,-49.805,-25.879,-25.879,-33.691,0
8.926,-42.480,-27.832,-14.160,-25.391,0
8.930,-43.945,-33.203,-20.020,-21.973,0
8.934,-53.711,-28.320,-28.320,-26.855,NaN
8.938,-50.293,-21.973,-35.645,-26.855,0
8.942,-39.062,-18.066,-36.133,-32.227,0
8.946,-41.016,-20.508,-39.062,-42.969,NaN
8.949,-41.504,-26.367,-50.781,-48.828,NaN
8.953,-24.414,-33.203,-38.574,-29.297,0
8.957,-17.578,-37.109,-22.949,-16.602,0
8.961,-26.367,-30.273,-29.785,-37.109,NaN
8.965,-31.250,-21.484,-26.855,-43.945,NaN
8.969,-33.203,-13.184,-27.832,-32.715,0
8.963,-20.996,-11.719,-28.320,-30.762,0
8.967,-12.695,-9.766,-39.551,-39.062,NaN
8.971,-22.949,-9.277,-59.082,-29.785,NaN
8.975,-36.621,-10.742,-60.059,-27.832,0
8.979,-40.039,-12.695,-52.246,-35.645,0
8.983,-33.203,-18.066,-55.176,-25.879,NaN
8.986,-27.832,-19.531,-55.664,-18.066,0
8.990,-29.297,-17.578,-44.434,-12.207,0
8.994,-23.926,-13.184,-39.551,-6.348,NaN
8.998,-18.555,-12.207,-41.016,-0.488,0
9.002,-22.949,-15.625,-41.504,-10.254,0
9.006,-25.391,-19.043,-29.297,-31.250,0
9.038,-29.297,-23.438,-19.531,-32.715,0
9.042,-28.320,-20.020,-28.320,-27.832,0
9.046,-27.832,-13.672,-34.668,-34.180,0
9.050,-39.062,-4.883,-34.668,-41.992,NaN
9.054,-39.551,-5.371,-40.039,-33.203,0
9.058,-32.227,-5.371,-35.156,-29.785,0
9.061,-37.598,-12.207,-22.949,-41.504,0
9.065,-37.598,-18.066,-15.625,-37.598,NaN
9.069,-36.621,-4.395,-16.113,-27.344,NaN
9.073,-43.945,-11.230,-29.785,-27.832,NaN
9.077,-41.504,-19.531,-32.715,-19.531,0
9.081,-32.715,-3.418,-32.227,-15.137,0
9.057,-32.227,2.441,-28.320,-26.367,NaN
9.061,-40.527,-5.859,-15.625,-27.832,NaN
9.065,-35.645,-11.719,-16.602,-26.367,NaN
9.069,-32.715,-10.254,-30.273,-33.203,0
9.073,-26.367,-8.301,-40.527,-32.227,0
9.077,-20.996,-8.789,-40.527,-23.438,NaN
9.080,-33.203,-16.602,-41.016,-25.879,NaN
9.084,-39.062,-16.602,-40.039,-32.227,NaN
9.088,-36.621,-11.719,-25.391,-35.645,0
9.092,-42.969,-10.742,-16.113,-35.156,0
9.096,-43.457,-14.160,-15.137,-30.762,0
9.100,-29.785,-15.625,-18.555,-29.785,0
9.113,-29.297,-11.719,-20.508,-13.672,0
9.117,-38.574,-17.090,-27.832,-5.859,0
9.121,-29.785,-20.020,-45.898,-22.949,0
9.125,-22.949,-12.695,-43.945,-29.297,NaN
9.129,-20.508,-5.859,-33.203,-25.391,0
9.133,-20.020,-9.766,-36.621,-16.113,0
9.136,-42.969,-14.648,-32.227,-24.414,0
9.140,-56.641,-12.207,-20.996,-39.062,NaN
9.144,-53.223,-15.137,-29.297,-46.387,0
9.148,-41.504,-18.066,-37.598,-44.434,NaN
9.152,-40.039,-17.090,-26.855,-26.855,NaN
9.156,-62.500,-17.578,-26.855,-31.738,NaN
9.151,-56.152,-19.043,-21.484,-37.598,0
9.155,-45.898,-20.996,-8.301,-36.133,0
9.159,-44.922,-27.832,-23.438,-36.133,0
9.163,-36.133,-20.996,-36.621,-35.156,NaN
9.167,-35.645,-17.578,-28.809,-41.016,0
9.171,-52.246,-26.367,-29.297,-45.410,0
9.174,-52.734,-21.484,-33.203,-46.875,0
9.178,-36.621,-13.184,-28.809,-42.480,NaN
9.182,-34.180,-16.113,-26.855,-33.203,0
9.186,-27.344,-12.695,-30.273,-36.133,0
9.190,-18.555,-4.883,-35.156,-36.621,0
9.194,-20.020,-3.418,-38.086,-27.344,0
9.206,-9.277,-0.488,-23.438,-24.414,0
9.210,-18.066,-0.488,-20.020,-33.691,0
9.214,-30.273,-8.789,-28.809,-32.227,NaN
9.218,-22.461,-4.395,-29.297,-21.484,0
9.222,-27.344,-1.465,-36.133,-21.973,0
9.226,-39.062,-3.418,-33.203,-16.602,0
9.229,-39.062,-11.230,-22.949,-16.113,0
9.233,-31.738,-20.020,-32.715,-20.996,NaN
9.237,-26.855,-8.789,-37.598,-17.090,0
9.241,-24.414,8.789,-35.156,-19.043,0
9.245,-29.785,7.812,-47.852,-23.438,0
9.249,-35.156,2.930,-46.387,-27.832,NaN
9.244,-34.668,-0.488,-36.133,-31.250,NaN
9.248,-39.062,-7.324,-38.086,-31.738,NaN
9.252,-38.086,-19.043,-27.832,-31.738,0
9.256,-30.762,-19.043,-16.113,-33.691,0
9.260,-24.902,-16.602,-13.672,-23.926,0
9.264,-22.949,-19.043,-24.902,-19.043,NaN
9.267,-22.949,-8.789,-48.828,-36.133,0
9.271,-29.297,-13.184,-49.316,-35.156,0
9.275,-34.668,-22.461,-43.945,-22.461,0
9.279,-30.762,-13.672,-32.227,-21.484,0
9.283,-32.715,0.977,-27.344,-25.391,NaN
9.287,-31.738,3.906,-24.414,-26.855,0
9.301,-35.645,-5.859,-12.695,-21.973,0
9.305,-41.016,-17.090,-13.184,-27.344,0
9.309,-31.250,-22.949,-26.367,-37.598,0
9.313,-16.602,-24.414,-32.715,-32.227,NaN
9.317,-27.832,-20.020,-30.762,-30.762,0
9.321,-37.109,-10.254,-36.133,-34.668,0
9.324,-29.297,-9.766,-39.551,-34.180,NaN
9.328,-22.461,-11.230,-29.297,-36.621,0
9.332,-28.320,-11.230,-33.203,-35.645,0
9.336,-36.621,-34.180,-35.645,-26.367,0
9.340,-37.598,-33.691,-33.691,-21.973,NaN
9.344,-41.504,-9.277,-42.480,-29.785,NaN
9.339,-42.969,-9.766,-39.551,-35.156,NaN
9.343,-38.086,-8.301,-37.109,-35.645,0
9.347,-32.715,-7.812,-32.227,-33.203,NaN
9.351,-30.273,-9.766,-27.832,-23.926,0
9.355,-30.762,-6.836,-22.949,-22.949,0
9.359,-29.785,-12.207,-14.160,-22.949,0
9.362,-23.438,-17.090,-26.367,-28.320,NaN
9.366,-15.137,-19.043,-32.715,-24.414,0
9.370,-17.090,-26.367,-39.062,-19.531,0
9.374,-29.297,-29.297,-44.434,-23.926,0
9.378,-35.645,-30.273,-31.738,-26.367,NaN
9.382,-33.203,-29.297,-24.414,-21.973,0
9.395,-17.578,-19.531,-29.785,-18.066,0
9.399,-13.672,-20.508,-46.387,-24.902,0
9.403,-24.902,-31.738,-34.180,-20.508,NaN
9.407,-30.762,-29.785,-15.137,-20.996,0
9.411,-37.598,-23.926,-17.090,-23.926,0
9.415,-21.484,-22.949,-23.926,-9.766,0
9.418,-1.465,-20.020,-32.715,4.883,0
9.422,-20.020,-19.531,-43.457,3.906,NaN
9.426,-41.016,-21.484,-40.039,-11.230,0
9.430,-43.945,-25.391,-23.438,-17.578,0
9.434,-47.363,-29.297,-19.531,-12.695,NaN
9.438,-45.898,-32.227,-31.250,-10.742,NaN
9.432,-36.621,-32.715,-41.504,-10.254,NaN
9.436,-40.039,-37.598,-27.832,-20.508,0
9.440,-50.293,-42.480,-13.672,-25.391,0
9.444,-53.223,-40.527,-9.277,-24.414,0
9.448,-44.922,-45.898,-3.906,-21.973,NaN
9.452,-42.480,-49.316,-13.672,-19.043,0
9.455,-47.363,-51.270,-20.996,-27.344,0
9.459,-44.922,-51.758,-26.855,-17.090,0
9.463,-45.410,-42.480,-36.621,0.977,0
9.467,-40.039,-39.551,-27.832,-3.906,NaN
9.471,-33.691,-35.645,-22.461,-1.465,0
9.475,-33.203,-33.691,-25.879,17.090,0
9.488,-26.855,-34.180,-24.902,21.973,0
9.492,-30.273,-32.227,-28.320,1.465,0
9.496,-33.691,-33.203,-25.391,-0.977,0
9.500,-29.785,-33.203,-19.043,4.395,0
9.504,-33.691,-29.785,-12.207,3.418,0
9.508,-36.133,-31.250,-22.949,8.301,NaN
9.511,-36.133,-30.762,-31.250,0.488,0
9.515,-40.039,-34.180,-34.668,-0.488,0
9.519,-40.039,-39.551,-41.992,4.883,0
9.523,-28.320,-36.133,-26.855,2.441,NaN
9.527,-21.973,-30.273,-7.812,7.812,NaN
9.531,-26.855,-25.391,-17.090,2.930,0
9.525,-24.414,-33.691,-32.715,-12.207,0
9.529,-14.648,-29.785,-21.973,-15.625,NaN
9.533,-13.184,-20.996,-16.113,-18.066,NaN
9.537,-20.508,-25.879,-23.438,-18.555,0
9.541,-27.344,-30.762,-31.250,-20.020,0
9.545,-23.438,-32.227,-38.574,-17.090,0
9.548,-17.578,-35.156,-41.016,-8.301,0
9.552,-24.414,-37.598,-33.203,-14.648,NaN
9.556,-20.996,-34.180,-31.250,-16.602,0
9.560,-15.625,-39.062,-39.551,-10.742,0
9.564,-17.090,-40.039,-29.297,-15.137,0
9.568,-10.254,-37.109,-27.344,-14.160,0
9.582,-13.672,-44.922,-28.809,-5.371,0
9.586,-22.949,-49.316,-30.273,-3.906,0
9.590,-18.555,-42.480,-41.504,-6.836,0
9.594,-17.578,-33.691,-41.992,-9.277,0
9.598,-17.090,-33.691,-35.645,-7.812,NaN
9.602,-7.812,-34.180,-30.762,-0.977,0
9.605,-14.160,-35.156,-34.180,1.953,0
9.609,-16.602,-45.898,-40.527,0.977,0
9.613,-12.207,-54.199,-43.457,-1.465,0
9.617,-21.484,-54.688,-40.039,-0.488,NaN
9.621,-22.461,-61.035,-47.852,7.812,NaN
9.625,-12.207,-67.871,-44.434,7.324,0
9.620,-12.695,-62.012,-30.273,-4.883,0
9.624,-10.254,-47.852,-31.738,-14.648,NaN
9.628,-6.836,-40.527,-31.250,-14.160,0
9.632,-16.113,-42.969,-29.785,-10.254,NaN
9.636,-15.625,-51.758,-37.598,-17.578,0
9.640,-13.184,-53.711,-41.992,-18.066,0
9.643,-9.277,-47.852,-38.574,-9.277,0
9.647,-1.465,-45.410,-50.781,3.906,NaN
9.651,2.441,-49.316,-62.012,9.766,0
9.655,-1.953,-55.664,-41.504,7.324,0
9.659,-3.418,-57.617,-41.504,10.742,0
9.663,-4.395,-59.570,-50.293,10.254,0
9.675,0.977,-62.500,-34.668,14.648,0
9.679,0.977,-68.359,-30.273,15.137,0
9.683,-7.812,-60.059,-28.809,8.789,0
9.687,-11.719,-53.711,-26.855,6.836,NaN
9.691,-4.883,-72.266,-23.926,12.207,0
9.695,14.160,-85.449,-21.973,36.621,0
9.698,2.930,-65.430,-40.039,17.090,0
9.702,-14.648,-54.688,-48.340,-9.277,NaN
9.706,-7.812,-54.199,-58.105,-7.324,0
9.710,-8.301,-58.594,-57.617,-17.090,NaN
9.714,-4.395,-62.988,-49.316,-3.906,NaN
9.718,3.418,-57.617,-51.270,2.930,NaN
9.713,-3.906,-58.105,-61.035,-4.395,0
9.717,-8.301,-65.430,-73.730,-6.348,0
9.721,5.371,-74.219,-60.059,2.441,0
9.725,11.230,-75.195,-50.781,5.371,NaN
9.729,7.324,-73.730,-50.781,-0.488,0
9.733,11.230,-69.336,-54.688,3.418,0
9.736,10.254,-67.383,-61.035,4.883,0
9.740,0.000,-66.895,-55.664,4.883,0
9.744,0.977,-68.848,-50.293,0.488,NaN
9.748,8.789,-73.242,-60.059,-8.789,0
9.752,6.348,-64.941,-62.012,-13.184,0
9.756,-3.418,-63.965,-53.223,-12.207,0
9.769,-0.488,-68.848,-45.410,-3.418,0
9.773,2.930,-65.430,-47.852,-6.348,0
9.777,-1.953,-72.266,-52.734,-22.949,0
9.781,0.977,-77.148,-51.270,-21.973,0
9.785,0.488,-69.824,-53.711,-8.789,0
9.789,4.395,-75.684,-52.734,2.930,NaN
9.792,9.766,-83.008,-42.480,3.906,0
9.796,6.836,-68.848,-51.758,5.371,0
9.800,9.277,-74.707,-66.406,2.441,0
9.804,12.695,-74.219,-60.059,-5.859,0
9.808,8.301,-60.059,-45.410,2.441,NaN
9.812,9.277,-66.406,-40.039,4.395,NaN
9.808,16.602,-71.289,-48.340,2.441,NaN
9.812,20.020,-67.871,-60.059,17.090,0
9.816,16.602,-64.941,-45.410,13.672,0
9.820,15.137,-70.312,-34.180,-3.418,0
9.824,20.996,-73.730,-33.691,-5.859,NaN
9.828,20.996,-76.172,-35.645,-3.906,0
9.831,16.113,-87.891,-47.363,-8.789,0
9.835,10.254,-89.844,-53.711,-2.930,0
9.839,2.441,-84.961,-48.340,-1.953,0
9.843,2.930,-86.914,-49.316,-11.230,NaN
9.847,12.207,-86.914,-64.453,-11.719,0
9.851,21.973,-88.867,-65.918,-10.254,0
9.864,25.879,-96.191,-66.895,-7.324,0
9.868,28.320,-100.586,-63.965,-8.789,NaN
9.872,22.461,-93.750,-43.945,-1.953,0
9.876,19.531,-93.262,-41.504,3.906,0
9.880,23.926,-105.957,-45.410,6.348,NaN
9.884,27.832,-111.816,-51.270,9.766,0
9.887,32.227,-105.957,-64.941,9.766,NaN
9.891,21.484,-104.492,-63.965,-1.465,0
9.895,3.418,-100.586,-52.734,1.953,0
9.899,9.277,-95.703,-52.734,13.672,NaN
9.903,21.484,-96.680,-56.152,15.137,NaN
9.907,20.996,-98.633,-60.547,17.578,NaN
9.901,17.578,-103.516,-58.105,17.578,0
9.905,20.508,-104.004,-49.805,18.066,0
9.909,29.785,-103.027,-44.434,20.508,0
9.913,22.949,-102.539,-54.199,16.602,NaN
9.917,21.973,-96.680,-62.500,9.277,0
9.921,29.297,-100.098,-59.082,16.113,NaN
9.924,32.227,-103.027,-65.918,20.020,0
9.928,37.598,-96.191,-73.730,17.090,0
9.932,42.969,-104.980,-69.336,16.602,0
9.936,40.527,-106.445,-58.105,6.836,NaN
9.940,36.621,-96.680,-61.523,-0.977,0
9.944,33.691,-93.750,-70.312,0.000,0
9.957,24.414,-79.590,-58.105,1.465,0
9.961,24.414,-77.637,-46.875,3.418,NaN
9.965,26.855,-94.238,-53.223,1.953,0
9.969,16.113,-96.191,-63.477,1.953,0
9.973,3.418,-85.449,-60.059,13.672,0
9.977,1.465,-84.961,-53.711,14.648,0
9.980,10.742,-83.008,-57.617,10.742,NaN
9.984,8.789,-87.402,-64.453,4.883,0
9.988,9.766,-98.145,-61.035,16.113,0
9.992,17.090,-100.586,-73.242,19.531,NaN
9.996,20.996,-96.680,-83.008,18.066,NaN
10.000,22.949,-91.309,-66.406,27.344,NaN
9.994,14.160,-95.703,-53.223,20.020,0
9.998,9.277,-102.051,-46.875,11.719,0
10.002,5.859,-103.516,-51.270,11.230,0
10.006,7.812,-99.609,-54.199,15.625,NaN
10.010,10.742,-100.098,-55.176,18.555,0
10.014,14.160,-106.934,-62.012,22.461,0
10.017,13.184,-111.328,-69.336,25.391,0
10.021,12.207,-106.445,-68.359,28.809,NaN
10.025,10.742,-103.516,-60.059,24.902,0
10.029,10.742,-109.863,-57.617,19.531,0
10.033,20.020,-106.934,-62.500,15.137,0
10.037,11.719,-102.051,-66.895,12.207,0
10.050,8.789,-102.051,-61.035,16.113,0
10.054,11.230,-106.934,-56.152,9.277,0
10.058,11.230,-109.375,-57.617,4.395,0
10.062,17.090,-102.539,-59.570,2.930,NaN
10.066,12.695,-99.121,-68.848,-0.977,0
10.070,9.766,-106.445,-62.500,-0.977,0
10.073,7.324,-109.863,-55.176,-1.465,0
10.077,2.441,-105.469,-52.734,-0.488,NaN
10.081,3.906,-100.098,-60.059,-0.488,0
10.085,16.113,-102.539,-65.430,8.301,0
10.089,23.438,-106.934,-55.664,23.926,NaN
10.093,20.996,-107.422,-60.547,26.367,NaN
10.089,11.719,-115.234,-70.801,22.949,NaN
10.093,6.348,-110.840,-70.312,17.090,0
10.097,13.184,-106.445,-63.477,10.742,0
10.101,17.578,-118.164,-63.965,11.719,0
10.105,17.090,-125.488,-68.848,8.301,0
10.109,15.137,-101.562,-64.453,11.230,NaN
10.112,16.602,-84.961,-57.129,13.672,0
10.116,15.137,-89.355,-62.988,10.254,0
10.120,21.973,-92.285,-61.523,16.113,NaN
10.124,26.855,-94.238,-62.500,15.137,0
10.128,23.926,-90.820,-61.523,11.230,0
10.132,28.809,-86.914,-55.664,13.184,0
10.144,26.855,-94.727,-51.270,13.672,0
10.148,23.438,-107.422,-51.270,12.207,0
10.152,34.180,-97.168,-54.199,13.672,0
10.156,28.809,-87.891,-46.875,18.555,NaN
10.160,18.066,-91.797,-49.316,17.578,0
10.164,10.254,-94.238,-64.941,19.531,0
10.167,10.254,-99.121,-77.148,25.391,0
10.171,19.043,-99.609,-62.988,29.297,0
10.175,7.812,-98.633,-40.527,26.367,NaN
10.179,-5.859,-99.121,-38.086,23.438,0
10.183,3.418,-103.027,-41.504,33.691,0
10.187,14.648,-106.934,-51.270,28.809,0
10.182,16.602,-103.027,-54.688,31.250,NaN
10.186,15.137,-95.215,-43.945,44.922,NaN
10.190,14.648,-98.145,-42.480,45.898,NaN
10.194,22.949,-95.215,-43.945,41.992,0
10.198,16.113,-89.844,-51.270,29.785,0
10.202,3.418,-98.145,-53.223,25.879,0
10.205,0.488,-98.633,-57.617,21.973,NaN
10.209,4.883,-89.844,-67.871,19.043,0
10.213,9.766,-93.750,-54.199,26.855,0
10.217,10.254,-118.652,-45.410,20.996,0
10.221,12.695,-103.027,-48.340,16.113,0
10.225,15.137,-70.801,-38.574,20.020,0
10.238,3.418,-71.289,-31.738,22.949,0
10.242,-6.348,-78.125,-33.203,23.926,0
10.246,-1.465,-87.402,-37.598,19.043,0
10.250,0.488,-91.797,-50.293,9.277,NaN
10.254,9.277,-89.355,-65.430,16.602,0
10.258,17.090,-91.309,-63.477,31.738,0
10.261,17.578,-97.656,-59.570,27.832,NaN
10.265,15.625,-99.609,-57.129,24.902,0
10.269,15.137,-100.098,-52.734,26.855,0
10.273,17.090,-93.750,-50.293,20.508,NaN
10.277,8.301,-92.285,-41.016,23.926,0
10.281,0.000,-91.309,-42.969,21.973,NaN
10.276,0.488,-81.055,-43.457,16.602,NaN
10.280,3.418,-75.195,-40.039,24.902,NaN
10.284,13.184,-78.613,-41.504,32.227,0
10.288,12.695,-83.496,-34.180,26.855,0
10.292,6.836,-86.426,-28.320,13.184,0
10.296,14.160,-86.426,-39.062,10.254,NaN
10.299,21.484,-84.961,-45.410,14.160,0
10.303,11.230,-90.820,-35.156,13.184,0
10.307,-1.465,-90.820,-27.832,16.113,0
10.311,-1.465,-80.566,-22.461,27.344,NaN
10.315,-5.859,-82.031,-12.695,20.508,0
10.319,-7.812,-83.984,-13.672,14.648,0
10.333,0.000,-84.473,-18.555,23.926,0
10.337,7.812,-88.867,-23.926,29.785,0
10.341,4.395,-80.078,-18.555,26.855,NaN
10.345,8.789,-75.195,-12.695,18.066,0
10.349,20.508,-71.289,-25.391,15.625,0
10.353,11.230,-71.289,-33.691,17.090,0
10.356,2.930,-65.430,-28.809,17.090,0
10.360,9.766,-63.965,-31.738,9.766,NaN
10.364,16.602,-81.543,-35.156,2.441,0
10.368,20.508,-77.148,-35.645,-2.930,0
10.372,8.301,-54.199,-27.832,3.418,NaN
10.376,1.953,-49.316,-22.949,0.977,NaN
10.369,0.000,-58.594,-20.020,-14.160,NaN
10.373,-1.953,-61.523,-33.203,-10.742,0
10.377,0.000,-60.547,-47.852,-0.977,0
10.381,3.906,-56.641,-39.062,-2.441,NaN
10.385,2.441,-56.641,-37.109,-12.207,0
10.389,-2.930,-58.105,-44.922,-18.555,0
10.392,-1.465,-62.500,-41.016,-9.277,0
10.396,3.906,-66.895,-36.621,2.930,0
10.400,7.812,-74.219,-34.668,0.977,NaN
10.404,2.441,-78.125,-34.668,-11.719,0
10.408,8.789,-61.523,-39.062,-9.277,0
10.412,13.184,-51.270,-48.828,5.859,0
10.426,-1.953,-53.223,-43.945,3.906,0
10.430,-5.371,-57.617,-28.809,-4.395,0
10.434,-1.953,-56.641,-27.832,0.488,0
10.438,6.836,-55.176,-28.809,6.836,0
10.442,0.000,-62.500,-35.645,1.465,NaN
10.446,-7.812,-62.500,-41.504,-3.906,0
10.449,-4.883,-55.176,-41.016,-8.301,NaN
10.453,-12.695,-52.246,-49.316,-13.672,0
10.457,-15.137,-53.223,-40.039,-8.301,0
10.461,-3.906,-57.129,-23.926,-6.348,NaN
10.465,10.742,-61.035,-16.113,8.789,NaN
10.469,10.254,-55.176,-13.184,11.719,0
10.463,-2.441,-47.363,-15.625,2.930,0
10.467,-8.301,-51.270,-24.414,-1.465,NaN
10.471,-1.953,-54.688,-38.086,-10.254,NaN
10.475,-2.441,-58.105,-48.828,-8.301,0
10.479,-3.418,-60.547,-52.734,-5.859,0
10.483,0.488,-48.340,-38.574,-3.906,NaN
10.486,-4.395,-36.621,-23.438,-12.207,0
10.490,-4.395,-39.551,-23.438,-20.996,0
10.494,-2.441,-55.176,-44.922,-21.484,0
10.498,-3.906,-59.570,-62.012,-15.625,0
10.502,-3.906,-61.035,-67.871,-17.578,NaN
10.506,-1.465,-61.035,-79.102,-17.090,0
10.520,1.953,-45.410,-68.359,-12.695,0
10.524,0.000,-41.016,-34.668,-25.879,0
10.528,-7.324,-43.457,-15.137,-32.715,0
10.532,-7.812,-42.480,-19.043,-25.879,NaN
10.536,-2.930,-47.363,-29.297,-10.742,0
10.540,-6.836,-48.828,-40.527,-5.859,0
10.543,-14.648,-46.875,-42.480,-11.719,0
10.547,-23.438,-49.805,-38.574,-21.484,NaN
10.551,-26.367,-49.316,-37.598,-20.020,0
10.555,-20.996,-49.805,-37.109,-18.555,0
10.559,-7.812,-52.246,-37.598,-17.578,0
10.563,-7.324,-49.316,-32.715,-21.484,0
10.576,-16.113,-45.410,-27.344,-19.531,0
10.580,-20.020,-44.434,-28.809,-16.602,0
10.584,-19.531,-50.293,-31.250,-26.855,0
10.588,-17.090,-51.270,-34.180,-23.438,0
10.592,-29.297,-44.434,-42.969,-35.156,NaN
10.596,-31.250,-40.527,-54.688,-47.852,0
10.599,-18.066,-44.922,-49.805,-45.898,0
10.603,-11.230,-46.875,-33.203,-35.645,0
10.607,-10.254,-34.180,-20.020,-25.391,NaN
10.611,-20.508,-29.297,-20.508,-33.203,0
10.615,-31.738,-32.715,-27.344,-40.039,0
10.619,-34.668,-37.598,-32.715,-41.504,0
10.613,-26.367,-34.668,-30.762,-40.527,NaN
10.617,-26.855,-34.668,-31.738,-42.969,NaN
10.621,-26.367,-41.504,-58.594,-33.691,NaN
10.625,-17.090,-43.457,-58.594,-24.902,0
10.629,-23.438,-39.551,-33.691,-45.410,0
10.633,-24.414,-33.691,-25.391,-45.410,0
10.636,-18.066,-33.691,-19.531,-38.574,NaN
10.640,-23.438,-37.109,-17.090,-44.434,0
10.644,-25.879,-38.086,-26.855,-35.645,NaN
10.648,-16.602,-35.156,-43.457,-35.156,0
10.652,-18.066,-29.297,-41.504,-38.086,0
10.656,-20.508,-23.926,-36.133,-35.156,NaN
10.650,-10.742,-22.461,-39.062,-35.645,NaN
10.654,-13.184,-17.578,-37.598,-40.527,NaN
10.658,-25.391,-20.996,-32.715,-41.016,0
10.662,-21.484,-28.809,-21.973,-41.504,0
10.666,-17.090,-30.273,-24.414,-57.129,0
10.670,-24.414,-26.855,-35.156,-60.059,NaN
10.673,-29.785,-19.531,-42.480,-53.223,0
10.677,-21.484,-18.555,-42.480,-36.133,0
10.681,-26.855,-25.391,-30.762,-25.391,0
10.685,-38.086,-30.762,-26.367,-44.434,NaN
10.689,-31.738,-29.785,-29.297,-50.781,0
10.693,-24.414,-28.320,-26.367,-35.156,0
10.706,-21.973,-33.203,-24.902,-35.156,0
10.710,-21.484,-27.344,-29.297,-35.156,NaN
10.714,-25.391,-19.531,-29.297,-30.762,0
10.718,-20.508,-13.672,-27.832,-34.180,0
10.722,-13.672,-13.672,-26.855,-35.156,0
10.726,-12.695,-19.531,-26.367,-41.016,0
10.729,-18.555,-20.020,-27.344,-51.270,NaN
10.733,-23.438,-25.391,-33.203,-39.062,0
10.737,-21.973,-25.879,-41.016,-33.691,0
10.741,-28.320,-25.391,-37.598,-33.691,0
10.745,-36.621,-24.414,-37.109,-30.273,NaN
10.749,-46.387,-25.879,-34.668,-38.574,NaN
10.745,-46.387,-25.391,-30.762,-29.297,NaN
10.749,-47.852,-25.391,-41.016,-26.855,0
10.753,-54.688,-36.621,-40.527,-33.203,0
10.757,-46.387,-35.156,-28.809,-24.902,0
10.761,-47.852,-24.414,-29.297,-30.762,0
10.765,-49.316,-20.996,-35.156,-37.109,NaN
10.768,-41.992,-17.090,-40.039,-34.180,0
10.772,-45.410,-20.996,-39.551,-29.785,0
10.776,-44.922,-29.297,-35.156,-21.973,0
10.780,-32.715,-31.250,-36.621,-24.902,NaN
10.784,-36.133,-26.367,-37.109,-33.203,0
10.788,-41.504,-17.578,-35.156,-40.039,0
10.801,-38.086,-17.090,-38.574,-43.945,0
10.805,-35.645,-22.461,-34.180,-46.387,NaN
10.809,-33.691,-27.832,-25.391,-44.922,0
10.813,-30.273,-30.762,-21.973,-47.363,0
10.817,-32.227,-23.438,-21.484,-49.805,NaN
10.821,-39.551,-13.672,-29.297,-43.457,0
10.824,-43.457,-14.648,-24.414,-45.898,0
10.828,-40.039,-13.672,-16.602,-51.270,NaN
10.832,-35.156,-15.137,-15.137,-41.016,0
10.836,-35.156,-26.367,-21.973,-33.691,0
10.840,-36.133,-21.484,-34.180,-25.879,NaN
10.844,-41.016,-4.883,-36.621,-39.551,NaN
10.838,-41.992,-0.488,-36.621,-48.828,NaN
10.842,-37.109,-7.324,-21.973,-44.922,0
10.846,-33.691,-7.324,-11.230,-48.828,0
10.850,-34.180,-6.836,-30.762,-40.527,NaN
10.854,-38.086,-10.254,-30.762,-39.551,0
10.858,-43.457,-6.836,-20.996,-39.062,0
10.861,-36.621,1.953,-14.160,-34.668,0
10.865,-35.645,0.977,-10.254,-43.457,NaN
10.869,-36.133,-7.812,-10.742,-44.922,0
10.873,-37.109,-10.742,-18.555,-39.062,0
10.877,-30.762,-0.488,-29.297,-36.133,0
10.881,-17.578,6.348,-25.879,-30.762,0
10.894,-12.207,0.488,-18.066,-30.762,0
10.898,-18.555,-0.977,-17.578,-29.297,0
10.902,-24.414,1.465,-20.020,-23.438,0
10.906,-25.391,-2.441,-22.461,-23.926,NaN
10.910,-29.785,-12.695,-26.367,-24.902,0
10.914,-35.645,-11.230,-24.414,-14.648,0
10.917,-35.645,-6.836,-18.066,-12.695,0
10.921,-29.785,-20.508,-6.348,-1.465,0
10.925,-14.160,-25.879,0.977,18.555,NaN
10.929,-17.090,-9.277,-10.742,6.348,0
10.933,-37.109,-6.348,-18.066,-4.395,0
10.937,-42.480,-10.742,-28.320,-2.441,0
10.932,-42.969,-2.930,-30.273,-9.766,NaN
10.936,-38.574,10.742,-27.344,-9.277,NaN
10.940,-39.551,15.137,-36.621,-13.184,NaN
10.944,-31.250,15.137,-38.086,-14.160,0
10.948,-20.996,16.113,-41.504,-17.578,0
10.952,-15.137,13.184,-49.805,-22.949,0
10.955,-25.391,15.137,-51.270,-31.738,NaN
10.959,-35.645,14.648,-49.316,-27.832,0
10.963,-30.273,17.090,-48.828,-22.949,0
10.967,-33.203,23.926,-54.199,-32.715,0
10.971,-31.738,27.344,-53.711,-32.227,0
10.975,-30.273,27.832,-51.270,-33.691,0
10.988,-28.809,24.902,-53.711,-34.668,0
10.992,-30.762,21.484,-54.199,-43.945,0
10.996,-18.066,12.695,-60.547,-41.016,0
11.000,-8.789,19.531,-59.570,-36.133,NaN
11.004,-22.461,27.832,-49.316,-46.875,0
11.008,-26.367,28.809,-53.711,-52.246,0
11.011,-24.414,24.902,-56.641,-49.316,0
11.015,-21.973,20.996,-62.012,-38.574,NaN
11.019,-20.996,22.949,-61.035,-29.785,0
11.023,-23.438,20.996,-49.805,-27.344,0
11.027,-26.367,20.508,-53.711,-22.949,0
11.031,-30.273,27.344,-60.547,-19.043,NaN
11.025,-34.180,28.320,-48.340,-19.531,NaN
11.029,-38.086,20.020,-32.715,-26.855,NaN
11.033,-37.109,16.113,-26.855,-31.738,0
11.037,-37.598,20.508,-27.832,-31.250,0
11.041,-49.316,18.066,-33.203,-36.133,NaN
11.045,-50.293,6.348,-38.574,-33.203,0
11.048,-50.293,1.465,-41.016,-36.621,0
11.052,-49.316,12.695,-31.738,-48.340,0
11.056,-47.363,14.160,-27.832,-48.828,NaN
11.060,-43.945,-8.301,-34.180,-46.875,0
11.064,-35.645,-0.977,-32.227,-43.457,0
11.068,-42.480,27.832,-32.715,-47.852,0
11.082,-51.270,25.879,-36.621,-50.781,0
11.086,-47.363,19.043,-38.086,-44.922,0
11.090,-44.434,16.602,-36.621,-41.504,0
11.094,-40.039,9.277,-26.855,-51.270,0
11.098,-37.598,8.789,-19.531,-47.363,0
11.102,-39.551,14.648,-20.996,-36.621,NaN
11.105,-39.551,18.066,-24.414,-37.598,0
11.109,-42.480,15.625,-23.438,-39.551,0
11.113,-42.969,11.719,-18.555,-41.504,0
11.117,-47.363,17.090,-18.066,-46.875,NaN
11.121,-39.551,15.625,-17.578,-33.691,NaN
11.125,-30.273,5.371,-26.367,-25.391,NaN
11.120,-41.016,13.184,-42.480,-37.109,0
11.124,-40.039,19.043,-29.297,-38.086,0
11.128,-28.809,17.578,-9.766,-37.598,0
11.132,-29.297,16.602,-17.578,-32.227,NaN
11.136,-30.762,8.301,-31.250,-35.645,0
11.140,-30.762,3.418,-14.648,-38.574,0
11.143,-37.598,5.371,-4.883,-42.480,0
11.147,-36.133,9.277,-8.301,-33.691,0
11.151,-40.527,6.348,-8.301,-27.344,NaN
11.155,-40.039,0.488,-11.719,-45.410,0
11.159,-39.062,0.977,-20.508,-49.316,0
11.163,-48.340,8.301,-28.809,-46.387,0
11.175,-51.758,12.695,-28.809,-40.527,0
11.179,-47.852,10.742,-34.668,-45.898,0
11.183,-41.992,10.742,-32.227,-51.758,0
11.187,-37.598,15.137,-22.461,-36.133,0
11.191,-41.992,14.160,-17.090,-31.738,NaN
11.195,-52.734,10.254,-22.461,-42.480,0
11.198,-49.316,11.230,-28.809,-49.316,0
11.202,-45.410,3.906,-24.414,-49.316,NaN
11.206,-52.734,-4.883,-19.043,-51.758,NaN
11.210,-56.641,0.000,-12.695,-57.617,0
11.214,-51.270,4.395,-12.695,-51.758,0
11.218,-48.340,8.789,-11.719,-43.457,NaN
11.214,-49.316,19.043,-14.160,-39.062,NaN
11.218,-47.852,18.555,-18.066,-35.156,NaN
11.222,-39.551,15.625,-15.625,-33.203,0
11.226,-38.574,20.508,-19.531,-26.855,0
11.230,-44.922,18.066,-20.996,-29.785,0
11.234,-53.223,12.695,-21.484,-42.969,NaN
11.237,-51.758,7.324,-22.949,-54.199,0
11.241,-44.922,3.906,-21.484,-40.039,0
11.245,-50.781,6.836,-25.391,-32.227,0
11.249,-54.199,10.254,-26.855,-50.293,0
11.253,-50.781,9.766,-13.672,-56.152,0
11.257,-43.457,10.254,-2.930,-53.223,0
11.270,-39.551,15.137,-7.812,-47.363,0
11.274,-37.598,20.508,-15.625,-48.340,0
11.278,-29.297,18.555,-22.949,-53.711,0
11.282,-9.766,14.648,-29.785,-42.969,NaN
11.286,-17.090,18.066,-11.719,-36.133,0
11.290,-43.945,11.719,-2.930,-39.062,0
11.293,-45.898,3.906,-18.555,-36.621,0
11.297,-38.574,3.906,-18.555,-42.480,0
11.301,-41.992,2.930,0.000,-42.480,NaN
11.305,-40.527,2.441,-0.488,-30.273,0
11.309,-33.203,4.395,-11.230,-24.414,NaN
11.313,-43.945,2.930,-9.277,-39.062,NaN
11.307,-61.035,-2.441,-11.230,-51.758,NaN
11.311,-58.105,0.000,-19.043,-51.758,0
11.315,-46.387,-2.441,-16.602,-31.738,0
11.319,-47.852,-9.277,-17.578,-28.320,0
11.323,-51.758,-3.906,-28.320,-45.410,NaN
11.327,-48.340,-2.441,-31.250,-38.574,0
11.330,-48.340,-5.859,-24.902,-31.738,0
11.334,-49.316,-5.859,-21.484,-32.715,0
11.338,-49.316,-5.859,-17.578,-32.227,0
11.342,-45.410,-1.465,-9.766,-34.180,NaN
11.346,-42.969,3.906,-13.184,-41.992,0
11.350,-40.039,7.324,-13.672,-46.875,0
11.363,-39.551,4.883,-20.508,-47.852,0
11.367,-40.527,-9.766,-23.438,-42.480,0
11.371,-40.039,-12.207,-13.672,-42.969,0
11.375,-39.062,-2.930,-9.277,-45.898,NaN
11.379,-32.227,10.742,-8.789,-44.434,0
11.383,-34.668,18.066,-11.230,-48.340,0
11.386,-39.062,7.324,-15.625,-50.781,NaN
11.390,-31.250,6.836,-22.949,-47.363,0
11.394,-27.344,9.766,-23.926,-44.922,NaN
11.398,-34.180,14.648,-24.902,-41.016,0
11.402,-39.062,10.254,-18.555,-30.273,NaN
11.406,-40.527,5.859,-16.602,-29.297,0
11.402,-42.969,9.766,-22.461,-41.992,0
11.406,-37.598,6.836,-16.602,-40.527,NaN
11.410,-35.645,2.441,-25.879,-39.062,0
11.414,-37.598,3.906,-24.902,-44.922,NaN
11.418,-43.457,3.906,-6.348,-53.711,0
11.422,-56.152,0.488,-9.766,-62.988,0
11.425,-56.641,6.836,-12.695,-52.734,NaN
11.429,-43.945,7.324,-17.578,-42.969,0
11.433,-44.922,4.395,-33.203,-52.734,0
11.437,-57.617,7.812,-26.367,-62.012,0
11.441,-53.223,15.137,-5.371,-54.199,0
11.445,-40.527,22.461,0.977,-46.387,0
11.458,-37.109,22.461,-2.930,-44.434,0
11.462,-45.898,24.902,-6.836,-45.410,0
11.466,-52.734,19.531,-13.184,-38.574,0
11.470,-55.176,8.789,-15.625,-47.363,0
11.474,-57.617,12.695,-19.043,-54.688,0
11.478,-62.988,10.742,-24.414,-48.340,NaN
11.481,-62.012,5.371,-17.578,-49.805,0
11.485,-57.617,2.930,-17.578,-44.922,0
11.489,-57.129,1.953,-31.250,-46.875,0
11.493,-62.988,2.930,-31.250,-50.781,0
11.497,-57.617,2.930,-21.484,-33.203,NaN
11.501,-59.082,0.488,-22.949,-32.715,NaN
11.495,-56.152,7.812,-21.973,-46.387,NaN
11.499,-42.480,15.625,-12.695,-46.875,0
11.503,-40.039,6.836,-5.859,-50.293,0
11.507,-45.410,3.418,-5.859,-51.758,0
11.511,-45.898,3.418,-9.766,-50.781,0
11.515,-45.410,4.395,-20.996,-48.828,NaN
11.518,-51.758,3.906,-26.855,-46.875,0
11.522,-54.688,4.395,-25.391,-38.086,0
11.526,-59.082,9.277,-26.367,-31.250,0
11.530,-64.453,9.277,-17.578,-33.691,0
11.534,-61.523,8.301,-11.719,-31.738,0
11.538,-54.199,8.301,-19.531,-34.668,0
11.550,-51.758,10.742,-29.785,-32.227,0
11.554,-48.340,9.766,-22.949,-26.367,0
11.558,-48.828,9.277,-17.578,-35.645,NaN
11.562,-44.922,17.578,-24.902,-36.133,0
11.566,-43.945,16.602,-26.855,-40.527,0
11.570,-54.688,11.719,-22.949,-42.969,0
11.573,-59.570,11.719,-13.672,-47.363,NaN
11.577,-57.129,12.207,-19.043,-53.223,0
11.581,-58.105,13.184,-28.809,-51.270,0
11.585,-52.734,8.301,-23.926,-59.570,0
11.589,-50.293,5.371,-20.996,-51.270,NaN
11.593,-44.922,3.906,-18.066,-40.527,NaN
11.588,-33.691,10.742,-13.184,-44.922,NaN
11.592,-37.109,10.254,-23.926,-52.734,0
11.596,-35.156,2.930,-25.879,-46.875,0
11.600,-35.156,10.742,-17.578,-40.039,NaN
11.604,-32.715,13.184,-23.926,-39.062,0
11.608,-20.996,12.207,-29.297,-21.973,0
11.611,-22.461,13.672,-19.043,-23.926,0
11.615,-32.227,15.137,-13.672,-36.621,NaN
11.619,-39.551,10.254,-19.043,-39.062,0
11.623,-41.992,3.906,-22.461,-47.363,0
11.627,-39.062,5.371,-18.066,-42.969,0
11.631,-47.363,3.906,-21.973,-43.457,0
11.644,-53.223,-0.977,-19.043,-40.527,0
11.648,-52.734,-0.977,-3.906,-35.645,0
11.652,-57.129,-2.930,0.000,-29.297,0
11.656,-52.246,-7.812,0.977,-18.555,NaN
11.660,-47.363,-5.859,-11.230,-18.066,0
11.664,-50.293,-2.930,-15.137,-18.066,0
11.667,-52.246,-2.441,-8.301,-15.137,0
11.671,-57.129,3.418,-10.742,-26.367,0
11.675,-55.176,6.348,-10.254,-33.691,NaN
11.679,-45.410,6.836,-10.254,-24.902,0
11.683,-42.969,-3.418,-14.648,-19.043,0
11.687,-51.270,-8.789,-20.996,-24.902,0
11.702,-55.664,-3.418,-27.832,-26.855,0
11.706,-49.805,-2.441,-17.578,-20.508,0
11.710,-49.805,9.766,1.953,-23.926,NaN
11.714,-48.828,23.438,-1.465,-25.879,0
11.718,-47.852,24.414,-6.836,-27.832,0
11.722,-46.387,10.742,-5.859,-27.344,0
11.725,-40.039,-1.465,-3.906,-26.855,0
11.729,-28.809,17.090,-3.906,-22.461,0
11.733,-29.297,20.020,-12.695,-11.719,NaN
11.737,-39.551,16.602,-18.066,-12.695,0
11.741,-48.828,19.531,-17.090,-20.020,0
11.745,-52.734,11.719,-19.043,-24.414,NaN
11.738,-35.645,16.602,-22.461,-17.090,NaN
11.742,-23.926,23.926,-11.719,-8.789,NaN
11.746,-36.133,15.625,-12.207,-14.160,0
11.750,-45.410,10.254,-12.695,-16.113,0
11.754,-46.875,17.090,-0.488,-14.160,NaN
11.758,-52.734,13.672,-4.395,-17.090,0
11.761,-52.246,3.418,-0.977,-17.090,0
11.765,-48.828,4.883,-12.207,-12.207,NaN
11.769,-58.594,7.324,-30.762,-8.301,0
11.773,-47.363,10.742,-8.789,-4.883,0
11.777,-38.086,19.043,6.836,0.488,NaN
