timestamps,TP9,AF7,AF8,TP10,Marker0
0.000,16.113,-27.832,-23.438,15.625,NaN
0.004,11.230,-8.301,-34.180,0.488,NaN
0.008,2.441,-3.906,-42.480,-4.883,NaN
0.012,-4.395,-17.578,-40.039,-9.766,NaN
0.016,-4.395,-19.043,-38.574,-10.742,NaN
0.020,-11.230,-28.320,-39.062,-10.254,NaN
0.023,-14.160,-25.879,-23.926,-11.230,NaN
0.027,-0.977,-21.484,-14.160,-6.836,NaN
0.031,12.207,-39.551,-22.461,0.000,NaN
0.035,23.926,-36.621,-28.809,4.395,NaN
0.039,4.395,-39.062,-41.992,-3.418,NaN
0.043,-3.906,-29.297,-45.898,0.488,NaN
0.045,4.395,2.441,-38.086,3.906,0
0.049,2.930,7.324,-41.016,-3.906,0
0.053,1.953,-3.906,-36.133,-2.441,NaN
0.057,-11.230,-16.602,-28.320,-13.672,0
0.061,-14.648,-41.992,-29.297,-17.090,0
0.065,-23.438,-59.082,-31.738,-22.461,0
0.068,-29.297,-43.457,-28.809,-25.879,0
0.072,-26.367,-46.387,-28.809,-22.949,NaN
0.076,-27.832,-49.805,-32.715,-20.508,0
0.080,-23.926,-22.461,-32.227,-7.324,0
0.084,-20.508,-12.207,-35.156,-8.301,0
0.088,-29.785,-18.555,-51.758,-16.113,0
0.090,-35.156,-20.996,-42.480,-14.648,NaN
0.094,-21.973,-21.484,-19.043,-13.184,0
0.098,-13.672,-16.602,-14.160,-9.766,0
0.102,-19.531,-21.973,-1.465,-6.836,0
0.106,-28.320,-37.598,-4.883,-21.973,NaN
0.110,-35.156,-38.574,-22.461,-30.273,0
0.113,-27.344,-19.531,-24.902,-23.926,0
0.117,-28.320,-19.043,-33.691,-30.762,0
0.121,-27.344,-34.668,-45.898,-34.668,0
0.125,-22.949,-39.551,-45.898,-35.645,NaN
0.129,-25.391,-28.320,-42.969,-29.785,0
0.133,-22.949,-34.180,-27.344,-26.367,0
0.135,-25.879,-48.828,-25.879,-35.156,0
0.139,-11.230,-29.785,-22.949,-18.555,NaN
0.143,1.465,-5.859,0.488,-9.277,0
0.147,-16.602,-6.836,-0.977,-35.156,0
0.151,-32.715,-6.348,-14.160,-47.363,0
0.155,-44.434,-5.371,-22.461,-47.852,0
0.158,-50.293,-15.137,-31.738,-51.758,NaN
0.162,-39.062,-26.855,-33.691,-51.270,0
0.166,-31.250,-26.367,-36.621,-43.457,0
0.170,-34.668,-16.113,-40.039,-38.574,0
0.174,-35.156,-20.020,-31.738,-43.945,0
0.178,-31.250,-24.902,-23.438,-44.922,NaN
0.180,-26.367,-29.297,-26.855,-38.086,0
0.184,-26.855,-30.273,-30.273,-36.621,0
0.188,-18.555,-28.809,-22.461,-29.785,NaN
0.192,-13.184,-33.691,-19.531,-15.625,0
0.196,-21.973,-34.668,-15.625,-14.160,0
0.200,-27.344,-29.297,-12.207,-24.414,NaN
0.203,-34.180,-22.461,-18.066,-36.133,0
0.207,-41.504,-10.742,-19.531,-37.109,0
0.211,-38.086,-7.324,-16.113,-35.156,0
0.215,-31.738,-20.508,-35.645,-33.691,NaN
0.219,-30.762,-25.879,-45.410,-40.039,0
0.223,-29.785,-21.484,-33.203,-48.340,0
0.225,-27.344,-21.973,-23.438,-41.016,NaN
0.229,-38.086,-35.645,-26.855,-45.898,0
0.233,-34.668,-32.715,-26.367,-40.039,0
0.237,-15.625,-16.113,-17.578,-24.902,NaN
0.241,-20.996,-16.602,-13.184,-33.691,0
0.245,-35.645,-9.766,-19.531,-46.387,0
0.248,-32.715,-4.395,-19.043,-41.504,0
0.252,-23.926,-14.648,-7.812,-37.598,0
0.256,-33.203,-20.020,-18.555,-40.527,0
0.260,-35.156,-31.738,-20.508,-27.344,NaN
0.264,-26.855,-42.480,-22.461,-24.902,0
0.268,-30.762,-47.852,-26.855,-33.203,0
0.270,-34.180,-35.156,-20.996,-35.156,0
0.274,-32.715,-13.184,-27.832,-36.133,NaN
0.278,-31.738,-11.230,-39.062,-33.691,0
0.282,-33.203,-23.438,-30.273,-43.457,0
0.286,-39.551,-33.691,-19.531,-53.711,0
0.290,-37.109,-27.832,-17.578,-44.922,NaN
0.293,-16.113,-4.883,-10.742,-22.949,0
0.297,-10.254,-3.418,-37.109,-21.484,0
0.301,-21.484,-24.902,-53.223,-36.133,0
0.305,-22.461,-35.645,-30.273,-36.133,0
0.309,-33.691,-40.527,-14.160,-37.598,0
0.313,-38.574,-39.062,-14.160,-40.527,NaN
0.315,-35.156,-30.762,-19.531,-46.387,0
0.319,-27.832,-18.066,-24.414,-44.434,0
0.323,-33.203,-7.324,-30.762,-49.316,0
0.327,-41.992,-16.602,-28.320,-45.410,NaN
0.331,-26.367,-20.508,-30.273,-35.645,0
0.335,-16.113,-19.531,-32.715,-23.926,0
0.338,-26.855,-38.086,-22.461,-27.344,0
0.342,-25.391,-41.992,-25.879,-31.738,0
0.346,-13.184,-26.855,-35.645,-15.137,NaN
0.350,-16.602,-19.043,-14.648,-13.184,0
0.354,-20.996,-24.902,-0.977,-24.414,0
0.358,-26.367,-22.949,-9.277,-27.344,0
0.375,-35.645,-31.250,-25.879,-30.762,0
0.379,-31.738,-34.180,-31.738,-34.668,0
0.383,-27.344,-22.461,-17.090,-37.109,0
0.387,-34.180,-11.719,-10.742,-29.297,NaN
0.391,-41.016,-27.832,-36.621,-32.227,0
0.395,-45.898,-47.363,-42.480,-39.062,0
0.398,-41.992,-28.809,-21.484,-33.691,NaN
0.402,-39.551,-28.320,-33.691,-34.668,0
0.406,-30.762,-46.387,-49.805,-19.531,0
0.410,-17.090,-40.039,-28.320,-8.301,NaN
0.414,-22.949,-23.926,-13.184,-17.578,0
0.418,-27.832,-17.090,-20.508,-24.902,0
0.420,-21.973,-23.438,-24.414,-24.414,NaN
0.424,-22.949,-30.762,-21.973,-25.879,0
0.428,-42.480,-25.879,-31.738,-41.992,0
0.432,-48.340,-23.926,-37.598,-51.270,0
0.436,-30.273,-29.785,-34.180,-37.109,0
0.440,-31.250,-44.922,-40.039,-35.156,NaN
0.443,-29.785,-38.574,-35.645,-36.621,0
0.447,-34.180,-35.156,-19.043,-32.715,0
0.451,-45.898,-38.574,-17.090,-38.574,0
0.455,-43.457,-16.113,-15.137,-37.598,NaN
0.459,-37.598,-11.230,-20.508,-33.203,0
0.463,-25.391,-28.809,-18.066,-16.602,0
0.466,-29.297,-32.227,-17.090,-13.184,0
0.470,-48.828,-37.598,-41.504,-31.738,NaN
0.474,-51.270,-37.598,-51.758,-43.457,0
0.478,-36.133,-33.203,-33.691,-33.691,0
0.482,-18.555,-28.320,-7.812,-23.438,0
0.486,-16.113,-20.508,0.488,-28.809,NaN
0.489,-29.785,-25.879,-13.672,-36.621,0
0.493,-34.668,-35.156,-37.109,-38.574,0
0.497,-29.297,-39.551,-30.762,-32.715,0
0.501,-36.133,-33.691,-20.020,-32.715,0
0.505,-39.062,-22.949,-27.344,-38.086,0
0.509,-27.832,-15.137,-24.902,-27.832,NaN
0.510,-26.855,-29.785,-24.414,-17.090,NaN
0.514,-36.621,-34.180,-38.574,-24.414,0
0.518,-53.711,-34.180,-44.434,-48.340,0
0.522,-41.504,-32.227,-21.484,-51.270,0
0.526,-37.109,-34.180,-8.301,-36.133,0
0.530,-48.828,-29.297,-19.531,-42.480,0
0.533,-45.898,-13.184,-18.066,-46.387,0
0.537,-34.668,-7.324,-5.859,-30.273,NaN
0.541,-31.738,-19.531,-13.672,-31.250,0
0.545,-41.992,-34.180,-33.691,-49.316,0
0.549,-35.156,-29.297,-35.645,-42.969,0
0.553,-33.691,-27.832,-32.227,-33.691,0
0.555,-28.809,-39.551,-25.391,-27.344,NaN
0.559,-19.043,-31.738,-26.855,-14.648,0
0.563,-25.879,-22.949,-40.039,-15.137,0
0.567,-35.645,-29.785,-33.203,-20.020,NaN
0.571,-29.297,-22.461,-16.602,-14.648,0
0.575,-28.320,-11.230,-15.137,-20.996,0
0.578,-38.086,-19.531,-24.902,-30.762,NaN
0.582,-41.016,-38.574,-37.598,-29.785,0
0.586,-50.293,-38.086,-44.434,-42.480,0
0.590,-52.734,-33.691,-34.668,-48.340,NaN
0.594,-48.828,-30.273,-22.461,-42.480,0
0.598,-49.805,-35.156,-24.902,-37.109,0
0.601,-44.434,-43.945,-34.668,-37.109,NaN
0.605,-35.645,-40.039,-26.367,-34.668,0
0.609,-30.273,-37.598,-16.113,-31.738,0
0.613,-36.133,-24.414,-29.297,-34.180,0
0.617,-34.668,-18.066,-23.438,-23.926,0
0.621,-26.367,-28.320,-7.812,-9.766,NaN
0.624,-27.832,-20.996,-10.254,-8.789,0
0.628,-20.508,-5.371,-14.160,-7.812,0
0.632,-21.484,-15.137,-42.480,-10.254,0
0.636,-28.320,-29.297,-52.246,-13.184,0
0.640,-21.973,-31.250,-26.855,-13.184,NaN
0.644,-24.414,-39.062,-10.254,-13.672,0
0.645,-38.574,-38.574,-12.207,-31.738,NaN
0.649,-46.875,-31.250,-16.113,-42.480,0
0.653,-30.273,-29.297,-17.578,-24.414,0
0.657,-28.809,-25.879,-26.367,-23.438,0
0.661,-40.039,-32.227,-26.367,-35.645,0
0.665,-34.668,-23.926,-27.344,-36.621,NaN
0.668,-34.668,-8.301,-31.738,-23.926,0
0.672,-28.320,-5.371,-27.344,-14.648,0
0.676,-26.855,-23.926,-41.016,-18.555,0
0.680,-20.996,-18.555,-45.898,-9.766,NaN
0.684,-19.043,-6.348,-26.855,-8.301,0
0.688,-31.738,-30.273,-29.785,-26.367,0
0.691,-30.273,-23.438,-28.320,-24.414,0
0.695,-27.344,-22.949,-20.996,-15.137,NaN
0.699,-29.785,-20.020,-26.367,-21.484,0
0.703,-31.250,-14.648,-20.508,-23.438,0
0.707,-38.086,-30.273,-12.207,-23.926,0
0.711,-37.598,-21.973,-11.230,-20.020,NaN
0.714,-43.457,-17.090,-17.578,-10.254,0
0.718,-45.898,-40.527,-24.414,-13.672,0
0.722,-37.109,-49.805,-23.438,-26.367,0
0.726,-41.504,-25.391,-41.504,-35.645,0
0.730,-43.945,-14.648,-64.941,-35.156,0
0.734,-44.434,-26.855,-41.504,-37.109,0
0.750,-29.785,-21.973,-13.672,-26.855,0
0.754,-16.602,-14.648,-9.277,-13.672,0
0.758,-25.391,-6.348,-9.766,-18.555,NaN
0.762,-41.992,-7.324,-14.160,-35.156,0
0.766,-43.457,-20.996,-11.230,-28.320,0
0.770,-39.551,-40.039,-15.625,-18.066,0
0.773,-41.504,-42.969,-36.133,-27.832,NaN
0.777,-30.273,-18.555,-29.785,-26.367,0
0.781,-11.719,-12.695,-11.719,-12.695,NaN
0.785,-7.324,-13.672,-10.742,-12.695,0
0.789,-18.066,-10.254,-21.973,-22.461,0
0.793,-20.996,-10.254,-41.016,-20.996,0
0.796,-19.531,-18.066,-39.551,-18.555,NaN
0.800,-18.066,-23.438,-20.020,-24.902,0
0.804,-18.555,-13.672,-16.113,-24.414,0
0.808,-21.484,-20.996,-25.879,-21.484,0
0.812,-23.438,-35.156,-35.645,-22.949,NaN
0.816,-28.809,-22.461,-32.227,-21.484,0
0.819,-27.832,-19.043,-18.066,-23.926,0
0.823,-33.691,-29.785,-15.625,-26.367,0
0.827,-30.273,-27.344,-15.625,-17.090,0
0.831,-35.156,-26.855,-17.090,-23.438,NaN
0.835,-49.316,-24.414,-27.832,-41.504,0
0.839,-43.457,-20.996,-39.551,-38.574,0
0.840,-34.668,-19.043,-43.457,-30.273,NaN
0.844,-27.832,-41.504,-37.109,-23.438,0
0.848,-23.926,-59.570,-31.250,-24.414,0
0.852,-23.438,-32.227,-34.180,-41.016,0
0.856,-24.414,-5.859,-20.020,-38.086,NaN
0.860,-27.344,-2.441,-2.930,-33.691,0
0.863,-33.691,-4.395,-9.277,-35.645,0
0.867,-19.043,-6.348,-19.531,-16.602,0
0.871,0.488,-19.043,-16.602,-5.371,0
0.875,-9.766,-13.672,-14.648,-21.484,NaN
0.879,-22.461,-0.977,-16.602,-35.156,0
0.883,-25.879,-11.719,-19.043,-30.762,0
0.885,-23.926,-23.438,-40.039,-26.367,NaN
0.889,-23.926,-29.785,-40.527,-29.785,0
0.893,-22.949,-25.879,-23.926,-24.414,0
0.897,-25.391,-11.719,-31.738,-25.391,0
0.901,-26.367,-22.461,-27.832,-33.691,0
0.905,-27.832,-41.992,-13.672,-34.180,NaN
0.908,-33.203,-39.551,-13.184,-34.668,0
0.912,-33.691,-21.973,-16.113,-35.156,0
0.916,-31.738,-5.371,-17.578,-32.715,0
0.920,-30.273,-5.371,-21.973,-35.156,0
0.924,-26.855,-9.766,-21.484,-23.926,NaN
0.928,-31.250,-6.836,-19.531,-22.949,0
0.931,-41.016,-26.367,-35.645,-41.504,0
0.935,-39.551,-40.039,-56.152,-31.738,0
0.939,-33.691,-46.875,-63.477,-25.879,NaN
0.943,-35.645,-44.434,-37.598,-31.738,0
0.947,-32.227,-24.414,-8.301,-23.926,0
0.951,-29.297,-25.391,-9.766,-24.414,0
0.954,-38.574,-31.250,-19.043,-28.320,NaN
0.958,-42.480,-37.109,-27.832,-26.367,0
0.962,-39.062,-38.574,-26.855,-25.391,0
0.966,-38.574,-36.621,-19.043,-21.484,0
0.970,-31.738,-34.668,-25.391,-18.066,NaN
0.974,-32.715,-22.461,-28.320,-26.367,0
0.975,-42.480,-36.621,-23.438,-31.250,NaN
0.979,-41.992,-37.598,-22.949,-26.367,0
0.983,-40.527,-15.137,-26.367,-25.391,0
0.987,-47.852,-21.973,-52.734,-24.902,0
0.991,-50.293,-38.086,-62.988,-29.297,NaN
0.995,-47.852,-32.227,-30.273,-37.109,0
0.998,-52.734,-23.926,-7.324,-43.945,0
1.002,-52.246,-28.809,-13.184,-41.992,0
1.006,-41.504,-37.109,-20.020,-37.109,NaN
1.010,-37.109,-33.203,-26.855,-31.738,0
1.014,-34.180,-24.414,-32.715,-32.715,0
1.018,-27.344,-23.926,-26.367,-29.785,0
1.021,-21.973,-22.461,-13.672,-25.391,NaN
1.025,-31.738,-34.180,-16.602,-40.039,0
1.029,-33.203,-25.391,-27.344,-36.621,0
1.033,-23.926,-3.418,-41.016,-26.855,0
1.037,-31.250,-15.625,-37.598,-28.809,0
1.041,-27.344,-15.137,-24.414,-11.230,NaN
1.044,-25.391,-13.672,-35.156,-7.324,0
1.048,-40.039,-24.902,-34.668,-22.949,0
1.052,-43.945,-49.316,-17.090,-29.785,0
1.056,-33.691,-56.152,-18.555,-22.461,0
1.060,-31.250,-32.227,-19.531,-18.555,NaN
1.064,-41.992,-41.992,-13.672,-28.320,0
1.065,-43.457,-44.434,-18.066,-28.320,NaN
1.069,-42.480,-25.391,-36.621,-23.438,0
1.073,-37.109,-19.043,-27.344,-21.484,0
1.077,-31.738,-8.301,-6.836,-20.996,0
1.081,-32.227,-12.207,-5.859,-20.508,0
1.085,-28.320,-26.855,-14.648,-16.602,NaN
1.088,-27.832,-36.133,-21.484,-18.555,0
1.092,-21.973,-40.039,-26.855,-19.531,0
1.096,-19.043,-34.668,-39.062,-19.531,0
1.100,-26.367,-29.785,-47.363,-20.508,0
1.104,-20.508,-21.973,-37.109,-17.578,NaN
1.108,-20.020,-23.926,-24.902,-19.043,0
1.125,-33.691,-23.926,-38.086,-24.414,0
1.129,-41.992,-21.973,-47.852,-24.414,0
1.133,-36.621,-9.766,-28.320,-20.020,NaN
1.137,-28.320,-3.906,-21.484,-21.973,0
1.141,-33.203,-33.691,-19.531,-28.809,0
1.145,-42.480,-66.406,-11.230,-41.992,0
1.148,-35.156,-43.945,-14.160,-47.363,0
1.152,-29.297,-8.301,-22.949,-48.340,NaN
1.156,-42.480,-6.348,-29.297,-52.734,0
1.160,-41.504,-24.414,-32.715,-43.945,0
1.164,-44.434,-31.738,-38.574,-45.898,0
1.168,-45.410,-19.043,-29.297,-46.875,NaN
1.170,-41.504,-24.902,-30.762,-46.387,0
1.174,-32.227,-35.156,-35.156,-44.434,0
1.178,-19.043,-28.320,-13.672,-31.250,NaN
1.182,-19.043,-13.672,-12.695,-32.227,0
1.186,-29.297,-20.508,-32.715,-38.086,0
1.190,-33.691,-32.227,-29.785,-39.062,NaN
1.193,-35.645,-38.086,-25.391,-45.410,0
1.197,-32.227,-39.062,-21.484,-42.480,0
1.201,-14.648,-28.809,-10.254,-20.508,0
1.205,-14.160,-36.621,-8.789,-15.625,0
1.209,-22.949,-31.738,-18.066,-34.180,0
1.213,-33.691,-16.602,-30.762,-45.410,NaN
1.215,-43.457,-29.297,-31.738,-41.992,0
1.219,-37.598,-39.062,-16.113,-32.715,0
1.223,-22.949,-25.879,-1.953,-24.902,NaN
1.227,-23.438,-32.227,-18.066,-24.414,0
1.231,-29.785,-45.410,-26.367,-21.484,0
1.235,-20.508,-51.758,-14.160,-14.648,0
1.238,-20.996,-45.410,-10.742,-14.160,0
1.242,-27.344,-16.113,-17.090,-18.555,0
1.246,-22.461,5.859,-15.625,-14.648,0
1.250,-26.367,-4.395,-8.301,-20.996,NaN
1.254,-45.410,-29.785,-24.902,-44.434,0
1.258,-47.363,-30.762,-33.691,-43.457,0
1.261,-33.691,-24.414,-26.855,-34.180,0
1.265,-31.738,-28.320,-22.949,-35.645,0
1.269,-29.297,-33.691,-18.066,-30.273,0
1.273,-30.273,-25.879,-22.461,-27.832,NaN
1.277,-41.992,-20.996,-32.715,-41.992,0
1.281,-38.086,-23.926,-25.879,-35.645,0
1.284,-34.668,-30.762,-11.230,-27.344,0
1.288,-55.664,-38.574,-12.207,-46.387,0
1.292,-63.477,-53.223,-13.672,-50.293,NaN
1.296,-63.965,-44.922,-28.809,-53.711,0
1.300,-57.617,-17.578,-32.227,-50.293,0
1.304,-52.734,-27.832,-31.250,-44.922,0
1.305,-60.547,-33.203,-30.762,-57.129,NaN
1.309,-53.223,-27.344,-18.555,-58.105,0
1.313,-43.945,-32.715,-12.207,-53.711,0
1.317,-30.762,-33.691,-20.508,-50.781,NaN
1.321,9.277,-22.461,-36.133,-19.043,0
1.325,-2.930,-25.879,-39.062,-14.160,0
1.328,-64.453,-44.434,-25.879,-46.875,NaN
1.332,-84.961,-46.875,-23.438,-62.500,0
1.336,-99.609,-42.969,-23.438,-81.055,0
1.340,-125.488,-57.129,-6.348,-101.074,NaN
1.344,-138.672,-77.148,-7.812,-103.516,0
1.348,-144.531,-80.078,-20.996,-118.164,NaN
1.350,-162.109,-76.660,-5.859,-139.160,0
1.354,-188.477,-69.336,7.812,-160.156,0
1.358,-215.820,-66.895,14.648,-182.617,0
1.362,-215.820,-65.430,16.113,-176.270,NaN
1.366,-210.938,-73.730,3.418,-169.434,0
1.370,-208.496,-91.797,-19.043,-164.062,0
1.373,-184.082,-91.797,-1.953,-142.578,0
1.377,-198.242,-92.285,34.180,-155.762,0
1.381,-200.684,-87.402,28.809,-163.086,NaN
1.385,-166.992,-68.359,27.832,-134.766,0
1.389,-154.297,-76.660,13.672,-124.023,0
1.393,-139.160,-94.238,2.441,-115.234,0
1.396,-104.492,-88.867,9.766,-83.496,NaN
1.400,-94.238,-92.773,-2.930,-71.777,0
1.404,-96.680,-75.195,-27.832,-69.824,0
1.408,-69.824,-37.109,-14.160,-47.852,0
1.412,-56.152,-43.945,15.137,-40.527,NaN
1.416,-60.547,-42.480,16.113,-40.527,0
1.419,-64.941,-45.410,5.371,-44.434,0
1.423,-76.172,-61.035,-12.207,-53.711,0
1.427,-68.359,-65.918,-21.973,-45.410,0
1.431,-57.129,-69.824,-16.113,-38.086,0
1.435,-56.641,-41.016,10.254,-38.086,NaN
1.439,-58.105,-27.344,16.113,-39.062,0
1.440,-51.270,-39.551,-14.160,-36.133,NaN
1.444,-35.156,-50.781,-23.438,-27.832,0
1.448,-23.926,-51.270,-5.859,-23.438,0
1.452,-28.809,-29.297,-18.555,-23.438,0
1.456,-30.273,-26.855,-29.785,-25.391,0
1.460,-37.598,-54.199,-20.508,-32.227,NaN
1.463,-43.945,-42.480,-3.906,-33.203,0
1.467,-45.410,-26.855,12.695,-38.574,0
1.471,-43.457,-43.457,1.465,-38.086,0
1.475,-34.668,-46.875,-16.602,-25.879,0
1.479,-21.973,-23.438,-33.203,-12.695,0
1.483,-7.324,-17.090,-34.668,-9.766,0
1.500,-10.742,-33.691,-26.367,-15.137,0
1.504,-30.273,-37.109,-9.277,-25.879,0
1.508,-26.855,-36.133,2.441,-22.461,NaN
1.512,-13.672,-29.785,-15.137,-0.977,0
1.516,-27.344,-27.832,-8.789,-12.207,0
1.520,-35.645,-26.367,1.953,-33.203,0
1.523,-40.527,-29.297,-20.508,-40.039,0
1.527,-42.480,-26.855,-12.207,-37.598,NaN
1.531,-36.621,-14.160,-7.324,-30.762,0
1.535,-28.320,-21.973,-34.180,-20.996,0
1.539,-18.555,-31.738,-23.926,-4.395,NaN
1.543,-25.391,-49.316,-7.812,-15.137,0
1.545,-6.348,-34.180,-27.344,-8.789,NaN
1.549,5.859,1.465,-25.391,6.836,0
1.553,-52.246,-22.461,-20.508,-35.156,0
1.557,-84.473,-32.715,-11.719,-68.848,0
1.561,-79.102,-7.812,-2.930,-76.172,0
1.565,-91.797,-17.578,-15.137,-85.938,NaN
1.568,-105.469,-45.410,-16.602,-95.703,0
1.572,-117.676,-58.105,-0.488,-107.422,0
1.576,-130.859,-67.871,-5.859,-110.840,0
1.580,-130.859,-53.223,-27.832,-106.934,0
1.584,-127.441,-29.785,-21.484,-109.375,NaN
1.588,-122.559,-30.273,-10.742,-104.980,0
1.590,-115.723,-39.062,-9.766,-96.680,0
1.594,-105.469,-61.035,-8.301,-83.984,0
1.598,-101.074,-53.711,-20.996,-71.289,NaN
1.602,-88.867,-19.531,-19.531,-64.941,0
1.606,-79.102,-25.879,-19.531,-54.199,0
1.610,-86.914,-53.223,-34.180,-63.477,0
1.613,-85.938,-40.039,-19.531,-66.895,0
1.617,-70.312,-23.926,0.977,-52.734,NaN
1.621,-61.523,-23.438,-0.977,-44.434,0
1.625,-61.523,-30.273,-19.043,-48.340,0
1.629,-62.012,-41.504,-29.297,-50.293,0
1.633,-49.805,-24.902,-26.367,-40.527,0
1.635,-41.016,-14.648,-26.855,-38.086,NaN
1.639,-30.273,-24.414,-23.926,-28.320,0
1.643,-24.902,-33.203,-26.367,-20.508,0
1.647,-31.250,-32.715,-29.785,-25.391,0
1.651,-24.902,-23.438,-8.301,-25.391,NaN
1.655,-18.066,-15.625,-0.977,-22.461,0
1.658,-18.555,-18.555,-14.160,-19.531,0
1.662,-24.414,-15.625,-26.367,-16.113,0
1.666,-29.297,-22.461,-42.969,-18.066,0
1.670,-25.391,-39.551,-30.273,-16.113,0
1.674,-22.461,-33.203,-10.254,-16.113,NaN
1.678,-28.809,-23.438,-22.461,-21.973,0
1.680,-38.574,-36.621,-23.438,-21.973,0
1.684,-38.086,-27.832,-0.488,-10.742,0
1.688,-38.574,-5.371,-7.812,-13.184,NaN
1.692,-34.180,-6.836,-24.414,-14.160,0
1.696,-20.996,-17.090,-28.809,-6.836,0
1.700,-16.113,-23.438,-41.504,-11.230,0
1.703,-23.438,-27.344,-32.715,-17.578,NaN
1.707,-26.367,-28.320,-20.996,-14.648,0
1.711,-21.973,-23.926,-29.785,-8.301,NaN
1.715,-34.180,-29.785,-19.043,-20.996,0
1.719,-24.902,-31.250,-3.906,-18.555,0
1.723,-14.648,-31.250,-10.254,-11.230,NaN
1.725,-29.297,-18.555,-36.621,-20.508,0
1.729,-25.391,-12.695,-47.852,-15.137,NaN
1.733,-19.531,-29.785,-40.039,-17.090,0
1.737,-30.762,-27.832,-30.273,-34.668,0
1.741,-43.945,-34.668,-12.695,-39.551,0
1.745,-35.645,-40.527,-18.555,-32.715,0
1.748,-31.250,-22.461,-31.250,-31.250,NaN
1.752,-40.527,-7.812,-28.320,-34.180,0
1.756,-35.156,-21.973,-14.648,-38.574,0
1.760,-17.578,-28.809,-15.137,-22.949,0
1.764,-20.020,-26.855,-24.902,-20.020,NaN
1.768,-38.086,-18.066,-18.555,-31.250,0
1.770,-39.062,-14.160,-22.949,-30.273,0
1.774,-41.504,-34.180,-36.133,-39.062,0
1.778,-62.012,-39.551,-35.156,-52.734,NaN
1.782,-66.895,-17.090,-20.996,-62.500,0
1.786,-64.941,8.789,-11.230,-71.289,0
1.790,-91.309,6.348,-12.695,-88.867,0
1.793,-104.980,-14.648,-18.555,-101.074,0
1.797,-102.051,-8.301,-37.109,-104.004,0
1.801,-110.352,8.301,-32.715,-108.887,NaN
1.805,-113.281,4.883,-10.254,-106.934,0
1.809,-133.301,-29.297,-19.043,-126.465,0
1.813,-153.320,-30.273,-7.324,-148.438,0
1.815,-176.270,-14.648,6.836,-166.016,NaN
1.819,-197.754,-44.434,-21.484,-179.199,0
1.823,-196.289,-61.523,-20.020,-181.152,0
1.827,-211.426,-5.371,6.348,-200.195,0
1.831,-223.633,46.875,13.184,-207.520,NaN
1.835,-221.680,39.551,31.250,-203.613,0
1.838,-209.473,30.762,54.688,-196.777,0
1.842,-189.453,27.344,32.227,-177.246,0
1.846,-175.293,-9.277,-4.395,-166.992,0
1.850,-167.480,-39.551,-2.930,-158.203,NaN
1.854,-143.555,-30.762,32.715,-131.348,0
1.858,-125.000,-20.020,37.598,-116.211,0
1.875,-118.164,-9.277,2.441,-108.398,0
1.879,-103.027,-25.879,-24.414,-85.938,0
1.883,-82.520,-24.414,-22.949,-64.941,NaN
1.887,-50.781,-20.020,-12.207,-45.410,0
1.891,-28.320,-28.809,-27.344,-34.180,0
1.895,-19.043,-35.645,-41.016,-25.879,0
1.898,-2.930,-59.570,-41.016,-12.695,NaN
1.902,22.949,-78.125,-49.805,-0.488,0
1.906,39.551,-46.875,-37.109,17.090,NaN
1.910,26.367,-20.508,-36.621,18.066,0
1.914,26.855,-18.066,-45.898,31.250,0
1.918,39.062,-34.180,-55.664,45.898,NaN
1.921,41.016,-44.922,-61.035,50.293,0
1.925,50.293,-51.758,-40.527,57.129,0
1.929,69.336,-65.918,-45.410,62.012,0
1.933,78.613,-37.598,-40.527,70.801,NaN
1.937,71.289,-25.391,-40.527,65.918,0
1.941,75.195,-39.062,-56.152,75.684,0
1.944,83.984,-33.203,-44.922,83.496,0
1.948,81.055,-20.020,-47.363,79.102,0
1.952,83.008,-7.812,-52.734,83.008,NaN
1.956,73.730,-17.578,-39.062,77.148,0
1.960,83.008,-37.109,-45.898,80.566,0
1.964,91.797,-42.969,-54.688,90.820,0
1.981,91.309,-31.738,-35.645,92.773,0
1.985,87.891,-30.762,-20.020,79.590,0
1.989,74.219,-34.180,-41.504,67.383,0
1.993,83.496,-20.508,-50.293,77.637,0
1.997,67.871,-20.020,-34.668,61.035,0
2.001,46.387,-19.531,-32.715,38.086,0
2.004,41.992,-28.809,-39.062,35.156,0
2.008,53.223,-47.363,-30.762,49.805,NaN
2.012,60.547,-27.832,-46.387,69.336,NaN
2.016,54.199,-17.578,-82.520,62.988,NaN
2.020,55.664,-40.527,-68.848,50.293,0
2.024,44.922,-31.738,-27.344,38.086,0
2.010,31.250,-16.602,3.906,26.367,0
2.014,31.250,-26.855,17.090,26.855,0
2.018,35.645,-37.598,8.301,27.344,NaN
2.022,37.598,-44.434,-16.602,31.738,NaN
2.026,33.203,-29.297,-39.062,25.879,NaN
2.030,29.297,-4.395,-61.523,24.902,0
2.033,47.852,-23.926,-45.410,43.945,0
2.037,43.457,-38.086,-15.625,40.527,0
2.041,12.207,-28.320,-15.137,16.602,0
2.045,10.254,-45.898,-23.438,14.648,NaN
2.049,18.066,-36.133,-18.066,20.508,0
2.053,9.766,-20.020,-8.789,14.648,0
2.055,10.254,-15.625,-30.273,14.648,NaN
2.059,17.578,-20.508,-31.738,15.137,0
2.063,-3.906,-41.016,-31.250,-3.906,0
2.067,1.465,-21.973,-31.250,10.742,0
2.071,15.137,-24.414,-25.879,25.879,NaN
2.075,3.906,-41.504,-20.508,4.395,0
2.078,-3.906,-33.691,-30.762,-1.953,0
2.082,2.930,-38.086,-51.270,9.766,0
2.086,16.113,-45.898,-34.180,12.207,0
2.090,11.719,-14.160,-13.672,5.371,NaN
2.094,-10.254,-0.977,-0.977,-4.395,0
2.098,-17.578,-20.508,-4.395,-8.789,0
2.100,-14.648,-17.578,-19.043,-9.277,NaN
2.104,-19.531,-8.789,-46.387,-18.066,0
2.108,-15.137,-11.719,-47.363,-11.230,0
2.112,-13.184,-23.926,-22.949,-3.418,NaN
2.116,-21.484,-21.973,-24.414,-14.160,0
2.120,-20.508,-33.691,-10.742,-23.438,0
2.123,-4.395,-37.109,-12.695,-9.766,0
2.127,-2.930,-24.414,-28.809,1.953,0
2.131,-22.949,-17.090,-27.344,-13.672,0
2.135,-30.762,-12.695,-24.902,-24.414,NaN
2.139,-32.715,-9.766,-25.391,-28.320,0
2.143,-24.414,-9.766,-29.297,-22.461,0
2.147,-21.484,-35.156,-36.133,-20.508,0
2.151,-24.414,-43.945,-51.758,-21.973,NaN
2.155,-17.090,-45.410,-50.781,-7.324,0
2.159,-23.926,-71.289,-40.039,-15.137,0
2.163,-23.926,-64.453,-35.156,-21.484,0
2.167,-26.367,-21.973,-20.508,-23.438,0
2.170,-37.598,18.066,-1.953,-26.367,0
2.174,-31.738,13.184,-0.488,-17.578,NaN
2.178,-27.344,-8.789,-14.160,-4.883,0
2.182,-29.785,-22.949,-26.855,-0.488,0
2.186,-20.996,-29.785,-38.574,-3.418,0
2.190,-6.348,-41.504,-34.668,9.277,NaN
2.190,-8.301,-50.293,-21.973,7.812,NaN
2.194,-16.113,-48.828,-33.203,-4.395,0
2.198,-20.996,-41.504,-30.762,-9.766,0
2.202,-20.508,-9.277,-4.395,-9.277,0
2.206,-25.391,9.766,-1.953,-10.254,0
2.210,-32.227,-5.371,-21.973,-19.043,0
2.213,-19.043,-17.090,-20.020,-6.348,0
2.217,-8.301,-29.785,-36.621,1.953,NaN
2.221,-1.953,-51.758,-53.711,0.000,0
2.225,-2.930,-33.691,-20.020,-4.395,0
2.229,-29.297,2.930,0.977,-22.461,0
2.233,-44.434,8.301,-7.812,-23.926,0
2.250,-32.715,-24.902,-24.902,-22.461,0
2.254,-17.090,-34.668,-37.109,-15.137,0
2.258,-16.602,-41.504,-41.504,-9.766,0
2.262,-23.438,-52.246,-33.203,-17.090,NaN
2.266,-23.438,-5.859,-26.855,-13.672,0
2.270,-23.926,11.230,-28.809,-14.648,0
2.273,-29.785,-13.672,-22.949,-30.762,NaN
2.277,-30.762,-42.969,-13.184,-35.156,0
2.281,-22.949,-29.297,-12.207,-28.809,NaN
2.285,-32.227,-25.879,-25.879,-29.297,0
2.289,-35.645,-32.227,-33.691,-35.156,0
2.293,-26.367,-22.949,-22.461,-29.297,0
2.296,-35.645,-20.020,-35.645,-30.273,NaN
2.300,-46.875,-0.977,-36.133,-41.992,0
2.304,-38.574,-3.418,-5.859,-35.645,0
2.308,-37.598,-27.344,-13.184,-29.785,0
2.312,-44.434,-29.297,-38.086,-35.156,0
2.316,-44.434,-23.926,-31.250,-37.598,NaN
2.319,-30.762,-38.574,-8.789,-21.484,0
2.323,-23.926,-44.434,-5.371,-15.625,0
2.327,-17.090,-28.809,-35.156,-18.066,0
2.331,-17.090,-7.812,-37.109,2.930,0
2.335,-32.227,4.395,-11.719,-9.277,NaN
2.339,-36.621,4.883,-3.906,-23.926,0
2.340,-27.344,-14.648,-0.977,-17.090,0
2.344,-32.227,-40.527,-12.695,-18.555,NaN
2.348,-37.109,-27.344,-14.648,-27.832,0
2.352,-27.832,-26.367,-2.441,-31.738,0
2.356,-27.344,-28.320,-4.883,-32.227,0
2.360,-26.855,-13.184,-21.973,-27.344,0
2.363,-22.461,-21.973,-26.855,-23.926,NaN
2.367,-13.184,-14.648,-12.207,-10.254,0
2.371,-13.184,-15.625,-2.441,-6.348,0
2.375,-27.832,-27.344,-16.602,-31.738,0
2.379,-33.691,-15.137,-24.414,-34.668,0
2.383,-27.832,-8.789,-10.742,-22.461,NaN
2.386,-38.574,-31.250,-21.484,-33.203,0
2.390,-33.203,-36.621,-33.203,-33.691,0
2.394,-34.180,-38.086,-34.668,-38.574,0
2.398,-39.551,-27.832,-23.926,-40.527,0
2.402,-27.832,-17.578,-8.789,-33.691,NaN
2.406,-34.180,-23.926,-11.719,-47.363,0
2.409,-39.551,-17.090,-15.625,-43.945,0
2.413,-36.621,-34.668,-37.109,-37.109,0
2.417,-36.621,-32.715,-35.645,-36.133,0
2.421,-41.504,-6.836,-11.719,-36.621,0
2.425,-42.969,-18.066,-22.949,-38.574,NaN
2.429,-25.391,-42.480,-26.367,-23.438,0
2.430,-22.949,-1.953,-4.395,-26.367,NaN
2.434,-34.668,-3.418,0.000,-41.504,0
2.438,-36.621,-37.598,-12.207,-41.504,0
2.442,-60.547,-34.668,-24.902,-61.035,NaN
2.446,-68.359,-35.156,-38.574,-69.824,0
2.450,-52.734,-20.508,-41.016,-65.430,0
2.453,-50.293,-11.230,-27.344,-62.500,0
2.457,-64.453,-16.602,-41.992,-70.312,NaN
2.461,-76.172,-20.996,-61.035,-79.590,0
2.465,-66.895,-31.738,-45.410,-72.266,0
2.469,-71.777,-34.668,-6.348,-85.938,0
2.473,-83.008,-23.438,-6.836,-98.145,NaN
2.475,-92.285,-22.461,-39.551,-111.328,NaN
2.479,-103.027,-26.367,-34.668,-132.324,0
2.483,-103.027,-3.906,-20.020,-125.977,NaN
2.487,-114.746,-11.719,-46.875,-121.582,0
2.491,-109.863,-52.734,-67.383,-105.469,0
2.495,-110.840,-30.273,-31.250,-109.863,0
2.498,-127.930,-12.695,-6.836,-135.254,0
2.502,-118.164,-27.832,-8.301,-122.559,0
2.506,-91.797,-19.043,-11.719,-106.445,NaN
2.510,-69.336,-0.977,-26.367,-94.727,0
2.514,-71.289,-12.695,-20.996,-83.984,0
2.518,-73.242,-21.973,-16.602,-85.938,0
2.520,-62.988,-6.836,-17.090,-75.195,NaN
2.524,-41.992,-8.789,-13.672,-51.758,0
2.528,-38.574,-30.762,-5.859,-46.875,0
2.532,-57.129,-25.391,-5.859,-60.059,0
2.536,-61.523,-8.301,-25.391,-64.453,NaN
2.540,-46.875,-14.648,-28.809,-52.246,0
2.543,-32.715,-29.785,-30.762,-41.992,0
2.547,-31.738,-24.902,-20.996,-44.922,0
2.551,-40.039,-12.207,-13.672,-53.711,0
2.555,-30.273,-4.883,-20.996,-44.434,NaN
2.559,-20.020,-17.578,-23.926,-21.484,0
2.563,-28.809,-35.156,-28.320,-27.344,0
2.565,-39.551,-24.902,-20.508,-41.992,NaN
2.569,-45.410,-20.020,-18.555,-46.387,0
2.573,-58.105,-38.086,-23.926,-54.199,0
2.577,-53.711,-33.203,-14.648,-53.223,0
2.581,-33.691,-12.695,-13.184,-42.480,0
2.585,-21.973,-14.160,-28.809,-29.785,0
2.588,-13.672,-25.391,-41.992,-17.578,NaN
2.592,-10.742,-46.387,-44.434,-13.672,0
2.596,-23.438,-44.922,-41.992,-19.531,0
2.600,-31.738,-12.207,-21.973,-26.367,0
2.604,-36.133,-9.277,-1.465,-39.551,0
2.608,-50.293,-44.434,-20.996,-48.828,NaN
2.611,-39.062,-53.223,-30.762,-45.898,0
2.615,-29.785,-37.109,-32.227,-41.504,0
2.619,-24.902,-16.602,-39.062,-31.250,0
2.623,-14.160,-6.348,-10.742,-19.531,NaN
2.627,-6.348,-14.648,2.930,-1.465,0
2.631,-16.113,-23.438,-38.086,-9.766,0
2.634,-20.996,-20.508,-58.594,-32.227,0
2.638,-19.043,-15.625,-30.762,-35.645,NaN
2.642,-32.227,-39.551,-18.555,-33.203,0
2.646,-33.203,-65.918,-35.645,-33.203,NaN
2.650,-29.785,-41.992,-35.645,-38.574,0
2.654,-33.691,-15.137,-24.414,-37.109,0
2.670,-25.879,-14.648,-10.742,-22.949,0
2.674,-13.184,-11.719,-0.488,-14.160,0
2.678,-9.766,-2.441,-29.785,-13.672,0
2.682,-7.324,3.906,-41.504,-6.348,0
2.686,-18.066,-11.230,-13.672,-9.766,0
2.690,-40.039,-32.715,-13.184,-30.762,NaN
2.693,-41.016,-46.387,-23.926,-35.645,0
2.697,-31.250,-59.570,-18.555,-27.344,0
2.701,-28.809,-51.758,-2.930,-27.832,0
2.705,-30.762,-10.742,-6.836,-24.902,0
2.709,-25.391,7.324,-18.066,-20.508,NaN
2.713,-30.273,-32.227,-51.270,-30.762,0
2.715,-28.320,-41.504,-64.941,-27.344,0
2.719,9.277,-1.465,-26.367,6.836,0
2.723,-0.977,-3.906,-6.348,-7.324,NaN
2.727,-46.875,-36.621,-3.906,-46.875,0
2.731,-62.012,-40.527,-6.836,-46.875,0
2.735,-62.988,-47.852,-10.254,-42.969,0
2.738,-66.406,-58.594,-9.766,-48.340,0
2.742,-62.012,-39.062,-28.320,-52.734,0
2.746,-53.223,-58.105,-41.992,-39.062,NaN
2.750,-61.035,-72.754,-26.855,-28.809,0
2.754,-82.520,-35.645,-5.371,-59.570,0
2.758,-96.680,-26.367,-1.465,-77.148,0
2.760,-76.660,-20.508,-10.254,-50.293,NaN
2.764,-60.547,-22.949,-4.395,-51.758,0
2.768,-76.660,-61.523,-9.766,-67.383,0
2.772,-73.242,-61.523,-29.785,-51.270,0
2.776,-58.594,-36.133,-30.273,-39.062,0
2.780,-53.711,-34.180,-14.160,-34.668,NaN
2.783,-42.969,-45.410,-10.254,-31.250,0
2.787,-35.645,-50.293,-4.883,-25.391,0
2.791,-26.367,-22.461,6.836,-12.695,0
2.795,-40.527,-13.184,-14.160,-27.344,NaN
2.799,-49.316,-11.719,-19.531,-41.504,0
2.803,-32.715,0.000,-34.180,-16.113,0
2.805,-36.133,-19.043,-45.898,-10.254,NaN
2.809,-41.504,-39.062,-4.395,-19.531,0
2.813,-23.926,-37.598,23.438,-10.742,0
2.817,-11.230,-30.273,5.371,-9.277,0
2.821,-23.438,-31.250,-28.809,-18.555,NaN
2.825,-32.715,-34.668,-34.180,-25.879,0
2.828,-28.320,-21.484,-9.766,-28.809,0
2.832,-37.109,-19.531,-11.230,-37.598,0
2.836,-50.781,-31.250,-34.668,-43.457,0
2.840,-30.273,-32.227,-40.527,-21.484,NaN
2.844,-13.184,-46.387,-29.297,-7.812,0
2.848,-33.691,-33.691,-11.719,-26.855,0
2.850,-36.621,-0.977,-0.977,-31.250,NaN
2.854,-34.668,-20.996,-5.859,-35.645,0
2.858,-29.297,-17.578,-22.949,-26.367,NaN
2.862,-5.859,-26.367,-46.387,-3.906,0
2.866,-9.277,-55.176,-47.852,-14.648,0
2.870,-33.203,-32.227,-18.555,-40.527,0
2.873,-47.363,-15.137,3.906,-48.828,0
2.877,-53.711,-29.785,-1.953,-52.246,NaN
2.881,-41.992,-42.969,-6.836,-39.062,0
2.885,-35.645,-22.461,-24.414,-20.508,0
2.889,-38.086,-14.160,-29.785,-28.809,0
2.893,-36.133,-19.531,-24.902,-28.320,0
2.896,-32.227,-26.367,-10.742,-18.555,NaN
2.900,-22.949,-27.344,3.906,-20.508,0
2.904,-26.855,-27.344,-25.391,-26.367,0
2.908,-32.715,-40.039,-39.551,-23.438,0
2.912,-24.414,-14.648,-26.367,-16.113,NaN
2.916,-34.668,-12.695,-13.672,-25.879,0
2.919,-46.387,-41.504,-6.836,-31.738,0
2.923,-45.410,-39.551,-23.926,-35.645,0
2.927,-32.715,-42.480,-39.551,-37.598,0
2.931,-33.203,-50.781,-26.367,-34.180,NaN
2.935,-25.391,-36.621,-18.066,-18.066,0
2.939,-3.906,-2.441,-25.879,-4.395,0
2.940,-21.973,2.930,-20.508,-27.832,NaN
2.944,-34.180,-31.738,-10.254,-43.457,0
2.948,-31.250,-30.273,-20.996,-38.574,0
2.952,-33.203,-18.555,-20.996,-43.457,0
2.956,-27.344,-15.625,-19.043,-43.945,0
2.960,-12.695,-17.090,-24.414,-30.273,NaN
2.963,1.465,-4.395,-20.996,-11.230,0
2.967,-5.371,-4.883,-26.855,-18.066,0
2.971,-21.484,-22.949,-25.879,-33.691,0
2.975,-20.508,-15.625,-30.762,-21.973,0
2.979,-13.672,-6.836,-50.293,-8.301,NaN
2.983,-19.043,-20.996,-48.828,-17.090,0
3.000,-8.301,-16.113,-36.133,-9.766,0
3.004,-7.812,-19.043,-32.715,-9.277,0
3.008,-17.578,-38.574,-27.344,-21.484,NaN
3.012,-9.766,-50.781,-18.066,-15.625,0
3.016,-11.719,-22.949,-7.324,-17.578,0
3.020,-25.879,18.555,-13.184,-23.438,NaN
3.023,-32.227,3.906,-37.109,-32.227,0
3.027,-36.621,-19.531,-27.344,-35.156,0
3.031,-39.062,-41.016,-30.762,-33.203,0
3.035,-23.438,-28.320,-56.152,-16.602,0
3.039,-24.902,-16.113,-42.480,-20.020,NaN
3.043,-34.668,-26.855,-14.648,-35.645,0
3.045,-26.855,-33.691,-20.508,-23.926,NaN
3.049,-27.832,-41.016,-35.156,-28.320,0
3.053,-30.273,-20.996,-25.879,-22.949,0
3.057,-37.598,-14.160,-22.461,-14.160,0
3.061,-38.086,-42.969,-25.879,-17.578,NaN
3.065,-24.902,-26.367,-34.180,-12.695,0
3.068,-15.137,1.953,-23.438,-8.789,0
3.072,-11.719,-13.672,-15.625,-19.043,0
3.076,-16.602,-16.113,-12.207,-25.391,0
3.080,-12.695,-28.809,-18.066,-25.391,0
3.084,-27.344,-41.992,-26.367,-36.133,NaN
3.088,-51.758,-34.668,-30.273,-38.086,0
3.090,-46.387,-36.621,-52.246,-39.551,0
3.094,-39.062,-32.715,-39.062,-35.156,NaN
3.098,-44.434,-16.602,-8.301,-33.691,0
3.102,-33.691,6.836,-12.695,-32.715,0
3.106,-29.297,-2.441,-28.809,-32.715,0
3.110,-23.438,-9.766,-28.809,-24.902,0
3.113,-21.973,-12.207,-34.180,-25.391,0
3.117,-39.551,-33.203,-40.039,-31.738,NaN
3.121,-43.457,-32.715,-33.691,-33.691,0
3.125,-46.387,-26.367,-26.367,-41.992,0
3.129,-34.180,-28.320,-17.578,-31.738,0
3.133,-28.320,-10.742,-21.484,-19.531,0
3.136,-36.621,11.719,-20.508,-23.926,NaN
3.140,-39.551,-9.766,-13.672,-32.227,0
3.144,-49.316,-37.598,-20.996,-44.434,0
3.148,-42.969,-34.668,-37.598,-35.645,0
3.152,-23.926,-30.273,-67.871,-20.508,0
3.156,-24.414,-24.414,-49.316,-27.344,NaN
3.159,-37.109,-27.832,-11.719,-41.016,0
3.163,-31.738,-42.969,-25.879,-39.062,0
3.167,-24.414,-41.504,-20.508,-30.273,0
3.171,-24.902,-10.742,-8.789,-33.691,0
3.175,-20.996,6.836,-22.949,-35.156,0
3.179,-30.762,-6.348,-26.367,-38.574,NaN
3.180,-45.898,-40.527,-38.574,-50.293,0
3.184,-44.434,-42.480,-53.223,-50.293,NaN
3.188,-37.598,-20.020,-20.996,-41.504,0
3.192,-39.062,-38.574,-18.066,-44.434,0
3.196,-41.016,-59.570,-41.992,-46.387,NaN
3.200,-30.273,-37.598,-14.648,-40.527,0
3.203,-34.668,-26.855,-4.395,-40.527,0
3.207,-41.504,-16.602,-26.367,-32.715,NaN
3.211,-32.227,1.465,-41.016,-16.602,0
3.215,-30.762,-14.648,-38.086,-20.020,0
3.219,-25.391,-34.180,-23.926,-33.691,NaN
3.223,-29.785,-50.293,-17.578,-39.551,0
3.225,-42.480,-55.664,-14.160,-44.434,0
3.229,-39.551,-43.457,-19.043,-40.039,NaN
3.233,-35.156,-39.551,-40.527,-31.738,0
3.237,-24.902,-39.062,-50.293,-36.621,0
3.241,-26.367,-19.043,-25.391,-40.039,0
3.245,-29.785,-5.371,2.441,-34.668,0
3.248,-26.855,3.906,-15.625,-24.902,NaN
3.252,-46.387,-7.812,-43.945,-36.621,0
3.256,-56.641,-35.645,-33.203,-42.480,0
3.260,-45.898,-41.504,-11.230,-37.598,0
3.264,-43.945,-27.344,-18.555,-43.457,0
3.268,-41.992,-24.414,-54.688,-41.504,NaN
3.270,-34.180,-34.668,-44.434,-38.086,0
3.274,-33.203,-32.715,-5.371,-35.645,0
3.278,-32.715,-13.184,-12.695,-21.973,NaN
3.282,-28.320,0.977,-34.668,-11.719,0
3.286,-33.691,-3.418,-45.898,-19.043,0
3.290,-41.016,-24.414,-31.738,-33.203,0
3.293,-45.898,-34.180,-25.391,-34.668,0
3.297,-50.293,-40.527,-33.691,-33.691,0
3.301,-57.617,-45.410,-25.879,-44.922,NaN
3.305,-45.410,-48.340,-25.391,-35.645,0
3.309,-24.902,-38.574,-28.320,-16.602,0
3.313,-36.621,-12.695,-31.250,-30.762,0
3.315,-40.527,2.930,-24.414,-41.016,NaN
3.319,-25.391,4.395,-13.184,-28.320,0
3.323,-34.180,-35.645,-34.180,-40.527,0
3.327,-46.387,-51.758,-55.664,-47.852,0
3.331,-26.367,-23.926,-20.020,-24.414,NaN
3.335,-27.832,-14.160,-13.672,-29.297,0
3.338,-50.293,-19.531,-35.645,-47.363,0
3.342,-37.109,-42.969,-39.551,-36.133,0
3.346,-12.695,-49.316,-52.246,-17.090,0
3.350,-1.465,-2.441,-41.016,-7.324,NaN
3.354,-15.137,6.836,-30.762,-22.461,0
3.358,-28.320,-22.461,-23.438,-35.156,0
3.362,-31.250,-25.391,-9.277,-36.133,0
3.366,-50.781,-29.785,-12.695,-41.992,0
3.370,-48.340,-53.223,-38.574,-36.621,NaN
3.374,-30.762,-43.945,-51.270,-25.391,0
3.378,-23.926,-1.953,-41.992,-32.227,0
3.382,-37.109,2.441,-30.273,-53.223,0
3.385,-41.992,-3.906,-34.668,-48.340,0
3.389,-30.762,-17.578,-13.672,-33.691,NaN
3.393,-30.273,-34.180,1.953,-39.551,0
3.397,-24.902,-23.926,-1.465,-26.855,0
3.401,-20.996,-21.484,-0.977,-16.602,0
3.405,-19.043,-41.504,-14.648,-30.762,0
3.420,-7.812,-37.598,-45.410,-13.672,0
3.424,-6.836,-25.391,-54.199,-1.465,0
3.428,-20.508,-24.902,-41.992,-18.555,0
3.432,-20.020,-16.602,-27.832,-24.414,0
3.436,-20.020,-21.484,-7.812,-26.367,0
3.440,-37.109,-25.879,-6.836,-37.109,NaN
3.443,-36.621,-18.555,-0.977,-35.645,0
3.447,-27.832,-26.367,-6.348,-25.391,0
3.451,-33.203,-31.738,-26.855,-24.902,0
3.455,-29.785,-27.344,-32.715,-18.555,NaN
3.459,-27.832,-25.391,-16.602,-21.484,0
3.463,-37.598,-16.602,-22.949,-34.668,0
3.465,-38.086,-15.625,-34.180,-24.902,NaN
3.469,-41.504,-30.273,-40.527,-25.391,0
3.473,-50.293,-43.457,-45.898,-45.410,0
3.477,-51.758,-53.711,-25.879,-44.922,0
3.481,-32.715,-39.551,-9.277,-28.809,NaN
3.485,-13.672,-15.625,-23.438,-16.113,0
3.488,-23.438,-19.531,-21.484,-21.484,0
3.492,-44.434,-23.438,-2.441,-45.410,0
3.496,-52.734,-11.230,0.977,-49.316,0
3.500,-47.363,-12.695,1.953,-36.133,NaN
3.504,-41.016,-8.301,-4.395,-31.738,0
3.508,-60.059,-13.672,-18.555,-55.664,0
3.510,-88.867,-27.344,-28.320,-80.078,NaN
3.514,-90.332,-24.902,-25.879,-76.660,0
3.518,-88.379,-5.859,-15.137,-85.938,0
3.522,-103.027,-3.906,-17.578,-108.887,0
3.526,-117.676,-13.184,-29.297,-123.047,0
3.530,-123.535,-10.254,-26.855,-127.441,NaN
3.533,-133.301,-12.695,-28.320,-136.719,0
3.537,-161.621,-18.555,-24.902,-166.016,0
3.541,-177.734,3.418,5.859,-167.969,0
3.545,-197.754,11.719,8.301,-180.176,0
3.549,-216.309,15.137,-3.906,-204.590,NaN
3.553,-220.215,4.395,-17.090,-208.496,0
3.570,-223.145,-1.465,-16.602,-215.820,0
3.574,-224.609,20.996,-11.230,-218.750,0
3.578,-227.051,33.203,-18.066,-215.820,0
3.582,-241.211,45.898,6.348,-232.422,NaN
3.586,-246.582,45.898,36.621,-243.652,0
3.590,-227.051,20.508,33.691,-227.051,0
3.593,-207.031,28.320,6.836,-193.848,NaN
3.597,-177.246,41.504,19.043,-157.715,0
3.601,-170.410,-11.230,26.855,-150.879,0
3.605,-176.270,-5.859,-12.695,-158.203,NaN
3.609,-150.391,19.043,-37.109,-141.602,NaN
3.613,-122.559,20.508,-17.090,-119.629,NaN
3.602,-126.953,17.578,-14.648,-115.723,NaN
3.606,-123.047,-11.230,-30.762,-106.445,0
3.610,-89.844,-41.992,-28.809,-80.566,0
3.614,-69.336,-44.434,4.395,-64.941,NaN
3.618,-71.289,-31.250,21.484,-66.406,0
3.622,-64.453,-45.410,-6.348,-60.059,0
3.625,-46.387,-83.008,-37.109,-41.992,0
3.629,-29.297,-58.594,-28.809,-23.438,0
3.633,-20.508,-6.348,-24.902,-14.648,0
3.637,-10.254,-22.461,-35.645,-10.254,0
3.641,10.254,-38.574,-28.320,-3.906,NaN
3.645,8.301,-47.852,-47.852,-1.465,0
3.645,5.371,-85.938,-55.176,8.789,NaN
3.649,25.879,-69.336,-34.668,34.668,0
3.653,41.504,-37.109,-29.297,55.664,0
3.657,26.367,-55.176,-35.645,46.875,0
3.661,19.043,-69.336,-32.715,36.133,NaN
3.665,41.992,-60.547,-27.832,52.246,0
3.668,30.762,-37.109,-34.668,46.387,0
3.672,10.254,-49.316,-36.133,28.320,0
3.676,30.273,-67.383,-51.758,33.691,0
3.680,52.734,-56.152,-60.059,54.688,NaN
3.684,58.105,-54.688,-32.715,63.965,0
3.688,46.875,-53.223,-28.809,48.828,0
3.690,51.758,-22.461,-32.227,50.293,NaN
3.694,62.500,-10.254,-20.508,62.500,0
3.698,50.781,-27.344,-25.879,54.688,0
3.702,51.758,-36.621,-45.898,46.875,0
3.706,58.594,-44.434,-47.852,54.688,0
3.710,59.570,-41.016,-24.902,67.383,0
3.713,61.523,-31.250,-25.879,69.336,NaN
3.717,59.082,-24.414,-33.203,60.547,0
3.721,49.316,-27.344,-23.438,50.293,0
3.725,43.945,-39.062,-24.414,43.945,0
3.729,51.270,-26.367,-30.762,49.316,0
3.733,49.805,-11.230,-32.715,52.734,0
3.750,38.086,-26.855,-32.715,40.039,0
3.754,26.855,-54.688,-39.551,28.809,0
3.758,29.297,-66.406,-37.598,29.785,NaN
3.762,36.133,-40.039,-25.879,27.344,0
3.766,29.297,-21.973,-26.367,23.926,0
3.770,25.391,-32.715,-44.434,24.414,0
3.773,28.320,-27.832,-41.992,22.949,0
3.777,39.062,-28.320,-19.531,31.738,NaN
3.781,39.062,-51.270,-28.320,21.484,0
3.785,31.250,-38.574,-29.297,19.043,0
3.789,25.391,-32.715,-26.855,17.578,0
3.793,13.672,-62.988,-50.781,0.977,0
3.810,10.254,-54.199,-38.086,2.441,0
3.814,4.395,-6.348,-10.254,4.883,0
3.818,-8.789,-12.207,-19.531,-6.348,NaN
3.822,-5.371,-26.367,-26.855,-4.883,0
3.826,10.254,-7.812,-29.785,13.672,0
3.830,13.184,-25.879,-23.926,27.832,0
3.833,16.602,-59.570,-17.578,37.109,0
3.837,16.113,-49.805,-11.719,21.484,NaN
3.841,-11.719,-25.391,-2.441,-10.742,NaN
3.845,-20.020,-13.184,0.488,-16.602,NaN
3.849,-13.184,-16.113,-18.066,-15.625,0
3.853,-12.695,-25.879,-41.992,-20.508,0
3.840,4.883,-10.254,-20.508,7.324,0
3.844,19.043,-27.344,-21.484,32.227,0
3.848,3.906,-67.871,-39.551,11.719,NaN
3.852,-12.207,-41.992,-10.254,-10.254,NaN
3.856,-17.578,-15.137,11.230,-14.160,NaN
3.860,-18.066,-14.160,7.812,-15.137,0
3.863,-11.230,-14.160,-16.602,-10.742,0
3.867,-14.648,-16.602,-33.691,-16.113,0
3.871,-8.301,-10.742,-33.203,-11.719,NaN
3.875,-3.906,-9.277,-40.527,-2.441,0
3.879,-3.906,-16.602,-30.273,0.000,0
3.883,-12.207,-61.523,-8.301,-8.301,0
3.886,-20.020,-69.824,-10.742,-11.719,0
3.890,-15.625,-32.715,-20.020,-6.836,NaN
3.894,-7.812,-15.137,-15.137,-1.953,0
3.898,-5.371,-7.324,-18.555,3.906,0
3.902,-17.578,1.465,-23.926,-2.441,0
3.906,-20.996,-3.418,-20.508,-13.184,0
3.909,-28.809,-14.160,-41.016,-21.973,NaN
3.913,-35.645,-27.344,-30.273,-24.902,0
3.917,-36.621,-46.387,-12.695,-20.996,0
3.921,-38.086,-56.152,-42.480,-28.320,0
3.925,-29.785,-44.434,-37.109,-26.855,0
3.929,-20.508,-42.969,-14.648,-8.301,0
3.931,-18.066,-26.367,-19.043,-3.418,NaN
3.935,-18.555,1.465,-23.438,-5.371,0
3.939,-17.090,4.883,-19.043,-1.953,0
3.943,-16.602,2.441,-17.090,1.953,0
3.947,-42.480,-29.297,-28.809,-25.391,NaN
3.951,-46.875,-54.199,-32.227,-39.062,0
3.954,-34.668,-47.363,-18.555,-29.297,0
3.958,-31.250,-40.527,-16.113,-21.973,0
3.962,-27.344,-38.574,-22.461,-19.043,0
3.966,-16.113,-22.461,-38.086,-14.648,NaN
3.970,-9.766,-23.926,-35.645,-7.812,0
3.974,-22.461,-41.504,-28.320,-20.508,NaN
3.975,-20.020,-25.391,-44.434,-11.719,0
3.979,0.488,-4.395,-34.180,3.906,NaN
3.983,-5.859,-9.277,-9.277,-6.836,0
3.987,-17.090,-21.973,-11.230,-5.859,0
3.991,0.000,-30.273,-14.160,15.137,NaN
3.995,0.488,-43.457,-22.461,18.066,0
3.998,7.812,-60.547,-33.691,14.160,0
4.002,9.277,-66.406,-42.480,11.230,0
4.006,1.953,-63.965,-48.340,2.930,0
4.010,15.137,-52.246,-61.523,12.207,0
4.014,19.531,-38.086,-68.359,22.461,NaN
4.018,22.461,-43.457,-34.180,21.973,0
4.020,21.973,-31.250,-6.836,14.160,0
4.024,9.766,-10.254,-2.441,3.418,0
4.028,6.836,-26.855,-4.395,7.812,NaN
4.032,2.441,-42.480,-15.625,3.418,0
4.036,1.953,-30.273,-24.414,1.953,0
4.040,5.371,-16.113,-29.785,6.836,0
4.043,1.465,-30.273,-44.922,6.836,0
4.047,3.906,-47.363,-56.152,3.418,0
4.051,2.441,-19.531,-23.438,-3.906,NaN
4.055,-6.348,-20.508,-5.859,-6.836,0
4.059,-7.324,-40.039,-7.324,-4.883,0
4.063,-2.441,-29.297,-3.906,-1.953,0
4.066,0.977,-24.902,-11.719,-0.488,NaN
4.070,1.465,-17.578,-21.973,-1.953,0
4.074,2.930,-20.020,-25.879,-4.883,0
4.078,-0.977,-32.715,-37.109,-3.906,0
4.082,-15.137,-21.973,-59.082,-18.555,NaN
4.086,-30.273,-15.625,-46.875,-27.344,0
4.089,-31.738,-23.926,-23.438,-25.391,0
4.093,-33.203,-32.227,-32.715,-35.645,0
4.097,-29.297,-48.828,-33.203,-36.621,0
4.101,-18.066,-46.875,-16.113,-30.273,NaN
4.105,-21.973,-15.625,-7.812,-26.367,0
4.109,-28.809,-0.977,-11.230,-25.879,0
4.125,-23.926,-10.254,-21.484,-20.020,0
4.129,-24.902,-20.508,-20.508,-16.602,0
4.133,-6.836,-19.531,-10.254,0.000,0
4.137,4.883,-36.133,-34.180,11.719,0
4.141,-24.414,-35.645,-53.223,-18.555,NaN
4.145,-46.387,-16.602,-26.367,-33.203,0
4.148,-49.805,-26.855,-9.277,-31.250,0
4.152,-49.316,-44.922,-15.625,-31.738,0
4.156,-36.621,-32.227,-29.297,-17.090,NaN
4.160,-35.645,-26.855,-28.320,-18.555,0
4.164,-43.945,-51.270,-24.902,-37.598,0
4.168,-29.297,-37.598,-22.949,-26.367,NaN
4.170,-15.137,-16.602,-26.855,-7.324,0
4.174,-20.508,-21.973,-27.344,-11.719,0
4.178,-26.855,-27.832,-31.738,-20.996,NaN
4.182,-24.414,-22.949,-28.320,-22.949,0
4.186,-19.531,-19.043,-11.719,-20.996,NaN
4.190,-21.484,-32.227,-18.555,-26.367,0
4.193,-16.113,-34.668,-34.180,-25.879,0
4.197,-6.836,-44.434,-45.898,-20.996,0
4.201,-2.930,-37.598,-42.480,-2.930,0
4.205,-14.648,-28.320,-20.996,3.418,NaN
4.209,-31.250,-23.926,-2.930,-20.508,0
4.213,-33.691,-16.602,4.395,-27.344,0
4.215,-28.320,-30.762,-14.648,-22.461,NaN
4.219,-31.738,-17.578,-30.762,-28.320,0
4.223,-38.086,-4.395,-15.137,-36.621,0
4.227,-30.762,-10.254,-0.977,-30.762,0
4.231,-23.926,-18.555,-7.812,-26.367,0
4.235,-29.297,-31.250,-47.852,-32.227,0
4.238,-35.645,-22.949,-63.477,-42.480,NaN
4.242,-26.367,-10.254,-29.785,-34.180,0
4.246,-14.648,-17.090,-2.441,-7.324,0
4.250,-25.391,-18.066,-3.906,-9.766,0
4.254,-30.762,-40.527,-28.809,-24.414,0
4.258,-24.902,-55.664,-40.527,-21.973,NaN
4.260,-28.320,-34.180,-27.832,-22.949,0
4.264,-35.645,-51.270,-19.531,-25.879,0
4.268,-28.809,-26.367,0.488,-23.438,0
4.272,-11.719,6.348,9.766,-12.207,0
4.276,-24.902,-13.184,-14.160,-21.973,NaN
4.280,-38.574,-26.367,-26.367,-34.668,0
4.283,-23.438,-27.344,-25.879,-21.484,0
4.287,-21.973,-15.137,-27.832,-10.742,0
4.291,-32.715,-29.297,-25.391,-20.020,NaN
4.295,-26.367,-31.250,-35.645,-21.484,0
4.299,-24.902,-26.367,-52.734,-19.043,0
4.303,-19.531,-35.645,-39.062,-9.766,NaN
4.305,-17.090,-28.320,-20.508,-3.418,0
4.309,-41.504,-20.508,-6.836,-32.715,0
4.313,-50.293,-27.344,7.812,-47.852,0
4.317,-44.922,-20.996,1.465,-33.691,NaN
4.321,-43.945,-34.180,-10.254,-32.227,0
4.325,-33.691,-27.832,-24.902,-36.621,0
4.328,-39.062,-17.090,-57.617,-38.574,NaN
4.332,-46.387,-41.504,-66.895,-36.133,0
4.336,-41.992,-34.180,-39.551,-24.414,0
4.340,-27.344,-16.113,-5.371,-15.625,NaN
4.344,-27.344,-15.137,-5.859,-30.762,0
4.348,-46.875,-2.441,-14.648,-51.270,0
4.351,-47.852,5.859,-5.371,-45.898,NaN
4.355,-45.410,-5.859,-32.227,-40.039,0
4.359,-50.293,-49.316,-41.992,-52.734,0
4.363,-40.039,-46.387,-29.297,-44.434,0
4.367,-23.438,-33.203,-63.477,-27.832,0
4.371,-22.949,-46.875,-72.266,-28.809,0
4.374,-28.809,-17.578,-26.855,-24.414,NaN
4.378,-33.691,4.883,13.184,-25.391,0
4.382,-44.434,-1.465,12.695,-37.109,0
4.386,-45.898,-4.395,-6.836,-42.480,0
4.390,-33.691,-8.301,-27.832,-33.691,0
4.394,-32.227,-34.180,-32.715,-26.367,NaN
4.395,-35.156,-61.035,-33.203,-34.668,0
4.399,-24.902,-40.527,-54.688,-37.598,0
4.403,-28.809,-16.113,-62.988,-38.086,0
4.407,-35.156,-18.066,-35.156,-42.969,NaN
4.411,-34.668,-11.230,-15.137,-44.434,0
4.415,-35.645,-7.324,2.441,-36.621,0
4.418,-30.273,-14.160,-1.953,-31.250,0
4.422,-23.438,-20.508,-30.762,-24.414,0
4.426,-12.695,-38.574,-28.320,-13.184,NaN
4.430,-26.367,-65.430,-28.809,-20.020,0
4.434,-41.992,-51.270,-61.523,-34.180,0
4.438,-43.457,-19.531,-61.035,-34.180,0
4.440,-43.457,-27.832,-25.879,-40.527,NaN
4.444,-41.992,-31.250,-16.602,-45.410,0
4.448,-44.922,-16.602,-19.043,-31.738,0
4.452,-35.156,-5.371,0.000,-19.531,0
4.456,-32.227,-10.254,-0.488,-28.320,NaN
4.460,-41.016,-39.062,-33.203,-40.039,0
4.463,-36.133,-48.340,-40.039,-33.203,0
4.467,-38.574,-28.320,-26.367,-30.762,0
4.471,-47.852,-27.344,-15.625,-41.016,0
4.475,-38.574,-33.691,-14.160,-40.527,0
4.479,-33.203,-26.855,-20.508,-29.297,NaN
4.483,-39.062,-26.367,-15.137,-32.227,0
4.500,-41.504,-29.297,-28.320,-34.180,0
4.504,-40.527,-38.574,-44.922,-25.391,0
4.508,-46.387,-51.270,-34.180,-37.598,NaN
4.512,-58.105,-49.805,-32.227,-57.617,0
4.516,-52.734,-26.367,-30.273,-55.176,0
4.520,-46.875,-17.090,-31.250,-53.223,0
4.523,-50.781,-40.039,-34.668,-48.340,NaN
4.527,-43.945,-33.203,-25.391,-38.574,0
4.531,-49.805,-22.949,-32.715,-49.316,0
4.535,-49.805,-28.320,-36.621,-52.246,0
4.539,-52.734,-40.527,-15.137,-37.598,NaN
4.543,-38.574,-30.273,-18.555,-24.902,0
4.545,-12.207,-9.766,-40.527,-22.949,0
4.549,-33.203,-29.297,-21.973,-41.992,NaN
4.553,-82.031,-46.387,-13.672,-74.219,0
4.557,-83.496,-35.156,-24.902,-77.637,0
4.561,-75.195,-27.832,-4.395,-67.871,0
4.565,-90.820,-39.062,-11.230,-72.266,0
4.568,-90.332,-39.551,-27.832,-75.195,NaN
4.572,-98.145,-61.035,-0.488,-89.844,0
4.576,-109.863,-62.012,6.348,-94.238,0
4.580,-109.863,-38.086,-4.883,-80.078,0
4.584,-102.539,-26.367,-10.254,-83.008,0
4.588,-126.465,-5.859,-19.531,-107.910,NaN
4.591,-145.020,-11.719,-6.348,-118.164,0
4.595,-149.902,-43.457,-8.789,-128.418,0
4.599,-153.809,-42.480,-8.301,-132.324,0
4.603,-151.855,-26.367,-10.742,-122.559,0
4.607,-131.836,-53.223,-26.855,-109.863,NaN
4.611,-101.074,-70.801,-13.184,-89.844,0
4.614,-97.168,-36.133,-11.719,-84.961,0
4.618,-105.957,-27.832,-26.855,-96.680,0
4.622,-108.887,-26.855,-27.344,-105.957,0
4.626,-117.676,-12.207,-28.809,-104.492,0
4.630,-115.234,-20.508,-33.691,-88.379,0
4.634,-91.797,-28.809,-36.621,-73.730,NaN
4.635,-69.824,-43.457,-41.016,-62.500,0
4.639,-62.500,-57.129,-37.598,-41.992,0
4.643,-64.453,-51.270,-28.809,-36.133,NaN
4.647,-63.477,-24.414,-18.066,-44.434,0
4.651,-74.219,-20.508,-13.672,-58.105,0
4.655,-81.055,-20.020,-19.043,-63.965,0
4.658,-81.543,-17.578,-40.039,-69.824,0
4.662,-66.895,-37.109,-24.902,-60.547,NaN
4.666,-42.969,-32.715,-18.066,-22.461,0
4.670,-35.645,-21.973,-31.250,-20.996,0
4.674,-40.039,-43.457,-31.250,-33.691,0
4.678,-34.668,-46.875,-35.156,-16.602,NaN
4.680,-27.344,-24.414,-12.695,-12.695,0
4.684,-36.621,-26.855,-9.766,-28.809,0
4.688,-42.969,-13.672,-13.672,-31.250,NaN
4.692,-41.992,-17.578,0.000,-30.762,0
4.696,-44.922,-27.832,-8.789,-35.645,NaN
4.700,-42.480,-26.855,-28.809,-38.086,0
4.703,-29.785,-18.555,-37.598,-36.621,0
4.707,-29.785,-20.508,-59.082,-26.855,0
4.711,-26.367,-44.434,-68.848,-10.742,0
4.715,-11.719,-20.508,-13.184,-0.977,NaN
4.719,-20.508,-14.648,23.438,-16.113,0
4.723,-34.180,-30.273,-2.441,-38.086,NaN
4.726,-38.574,-12.695,-18.555,-40.039,0
4.730,-36.621,-19.043,-20.020,-33.691,0
4.734,-29.297,-16.602,-11.230,-31.250,0
4.738,-26.855,0.000,-14.648,-28.809,0
4.742,-31.738,-23.438,-34.668,-29.297,0
4.746,-29.297,-24.414,-46.387,-20.508,NaN
4.749,-27.832,-36.133,-56.152,-12.695,0
4.753,-34.668,-67.871,-41.016,-10.254,0
4.757,-28.320,-32.227,-5.371,-2.441,0
4.761,-24.902,-6.348,16.113,-7.812,NaN
4.765,-42.969,-26.855,8.789,-26.367,0
4.769,-56.152,-29.297,-13.672,-41.504,0
4.770,-54.199,-24.902,-30.762,-37.598,NaN
4.774,-41.992,-26.367,-42.969,-21.973,0
4.778,-23.926,-38.086,-41.504,-15.625,0
4.782,-19.531,-48.340,-35.156,-13.184,NaN
4.786,-37.109,-57.129,-28.809,-23.926,0
4.790,-42.969,-47.852,-24.414,-32.227,0
4.793,-10.254,-6.348,-12.695,-5.859,0
4.797,-13.672,-6.348,-3.906,-0.488,0
4.801,-41.016,-9.766,-35.156,-24.902,0
4.805,-32.715,-4.395,-47.363,-32.227,NaN
4.809,-21.973,-27.832,-24.902,-20.508,0
4.813,-23.438,-21.973,-17.578,-16.113,0
4.816,-33.203,-24.414,-4.883,-33.203,0
4.820,-30.762,-38.086,-1.953,-37.598,NaN
4.824,-23.438,-14.648,-17.578,-23.926,0
4.828,-30.273,-27.832,-23.438,-27.832,0
4.832,-33.203,-45.898,-24.414,-39.551,0
4.836,-22.461,-22.461,-36.621,-25.391,0
4.839,-21.973,-1.465,-32.715,-13.672,0
4.843,-28.320,-13.184,-13.184,-18.066,NaN
4.847,-32.227,-43.945,-17.090,-32.715,0
4.851,-32.227,-39.551,-34.668,-41.992,0
4.855,-26.855,-22.949,-21.973,-29.297,0
4.859,-15.625,-16.113,-2.441,-10.742,0
4.875,-17.090,-8.789,2.930,-15.137,0
4.879,-20.996,-16.113,-0.488,-12.207,0
4.883,-17.578,-28.320,-26.855,-6.348,0
4.887,-18.066,-68.359,-41.992,-16.113,0
4.891,-11.230,-54.688,-27.832,-10.742,NaN
4.895,-15.137,-3.906,-19.531,-17.578,0
4.898,-29.297,-0.977,-24.414,-30.273,0
4.902,-26.367,-9.766,-26.855,-30.273,NaN
4.906,-10.742,-22.461,-29.297,-24.902,0
4.910,1.465,-38.086,-38.086,-10.742,0
4.914,4.883,-43.457,-34.180,5.859,0
4.918,3.906,-36.133,-27.832,5.859,0
4.920,3.418,-36.621,-30.273,2.930,NaN
4.924,7.812,-36.133,-36.133,2.441,0
4.928,7.324,-17.578,-42.969,-1.465,0
4.932,3.418,-13.672,-30.273,2.930,0
4.936,1.465,-21.973,-20.020,9.766,0
4.940,11.230,-37.598,-13.672,14.648,NaN
4.943,9.766,-51.270,-27.832,11.719,0
4.947,-6.836,-32.227,-54.199,-6.348,0
4.951,-1.953,-14.160,-46.387,-7.812,0
4.955,7.812,-10.742,-20.508,6.836,NaN
4.959,-4.883,-11.719,-29.297,-0.977,0
4.963,-16.602,-24.902,-43.945,-12.695,0
4.965,-19.043,-34.668,-41.992,-8.789,0
4.969,-13.672,-37.109,-39.551,-1.465,0
4.973,-6.836,-23.438,-25.879,2.441,NaN
4.977,-9.766,-24.902,-9.277,-7.324,0
4.981,-7.324,-42.480,-6.836,-11.230,0
4.985,-4.395,-44.922,-15.137,-13.672,0
4.988,-7.324,-41.016,-10.742,-15.137,0
4.992,-12.695,-34.180,-13.672,-8.301,NaN
4.996,-16.602,-21.484,-39.062,-4.883,0
5.000,-18.066,-39.551,-39.551,-13.672,0
5.004,-22.461,-21.484,-12.695,-22.949,0
5.008,-23.438,-2.441,-13.184,-27.344,0
5.010,-19.531,-37.109,-33.203,-28.809,NaN
5.014,-34.668,-48.340,-42.480,-38.086,0
5.018,-41.016,-42.480,-35.156,-45.410,0
5.022,-31.738,-28.809,-20.996,-34.668,0
5.026,-29.297,-18.555,-29.297,-27.344,0
5.030,-32.715,-22.949,-50.293,-24.902,NaN
5.033,-38.574,-13.672,-52.246,-31.250,0
5.037,-39.551,-8.301,-39.062,-33.203,0
5.041,-44.434,-30.762,-25.879,-30.762,0
5.045,-43.457,-39.551,-20.508,-35.645,0
5.049,-33.203,-20.020,-22.949,-33.203,NaN
5.053,-38.086,-35.156,-24.902,-41.016,0
5.056,-39.551,-70.801,-27.344,-41.992,0
5.060,-31.250,-62.012,-28.809,-31.250,0
5.064,-41.016,-18.555,-24.902,-39.551,NaN
5.068,-16.113,6.348,-39.551,-24.902,0
5.072,-4.395,-3.906,-36.621,-15.137,0
5.076,-29.297,-23.438,0.000,-28.320,0
5.079,-38.086,-18.066,7.324,-30.273,0
5.083,-47.363,-20.996,-1.953,-31.738,NaN
5.087,-40.527,-35.645,-1.953,-24.902,0
5.091,-38.086,-54.199,-8.789,-26.367,0
5.095,-38.574,-52.246,-8.789,-16.113,0
5.099,-36.133,-49.316,-10.254,-5.859,NaN
5.100,-29.785,-56.152,-24.414,0.977,0
5.104,-27.832,-60.547,-20.508,5.371,0
5.108,-32.227,-71.289,-6.836,3.418,NaN
5.112,-30.273,-67.383,10.254,15.137,0
5.116,-38.086,-67.871,13.672,9.766,0
5.120,-43.945,-95.215,2.441,0.000,0
5.123,-38.086,-99.121,11.230,-2.441,0
5.127,-42.480,-82.520,14.160,-0.977,0
5.131,-27.344,-75.195,6.348,14.648,NaN
5.135,-19.531,-54.688,23.438,19.043,0
5.139,-35.645,-66.895,22.949,2.930,0
5.143,-37.598,-104.492,-0.488,2.930,0
5.145,-45.410,-78.613,0.977,-1.953,NaN
5.149,-54.199,-48.340,10.742,-10.254,0
5.153,-52.246,-48.340,19.043,-2.930,0
5.157,-50.293,-60.059,10.742,2.930,NaN
5.161,-42.969,-87.891,-21.484,-8.789,0
5.165,-28.809,-72.266,-23.926,-0.977,0
5.168,-24.902,-36.621,-2.930,14.648,0
5.172,-37.109,-45.410,6.348,-9.766,0
5.176,-36.133,-39.062,8.789,-21.484,0
5.180,-21.973,-22.949,-16.113,0.488,NaN
5.184,-29.785,-32.227,-29.785,-13.672,0
5.188,-25.879,-41.016,1.465,-21.484,0
5.190,-21.484,-54.199,8.789,-5.859,NaN
5.194,-28.809,-60.547,-1.465,-11.719,0
5.198,-20.020,-37.598,-13.672,-12.695,0
5.202,-21.484,-33.691,-15.137,-14.648,0
5.206,-24.902,-54.199,-1.465,-21.484,0
5.210,-19.531,-54.688,-15.625,-25.391,NaN
5.213,-18.066,-41.016,-34.668,-25.879,0
5.217,-15.137,-20.020,-15.137,-20.996,0
5.221,-13.184,-30.762,3.418,-23.438,0
5.225,-9.277,-37.109,-5.371,-4.883,0
5.229,-25.879,-22.461,-18.555,-6.836,0
5.233,-26.855,-23.438,-5.859,-26.367,NaN
5.236,-15.625,-32.227,-21.973,-19.043,0
5.240,-20.508,-46.875,-29.785,-16.113,0
5.244,-27.832,-47.852,-6.348,-22.461,0
5.248,-38.086,-30.273,-12.695,-32.715,NaN
5.252,-47.363,-18.066,-36.133,-41.504,0
5.256,-45.410,-26.855,-32.227,-42.480,0
5.259,-27.344,-48.340,2.441,-32.227,0
5.263,-29.297,-43.457,4.395,-27.344,0
5.267,-40.039,-24.902,-23.926,-41.992,0
5.271,-40.039,-27.344,-52.734,-50.293,NaN
5.275,-20.996,-28.320,-45.410,-29.785,0
5.279,2.441,-19.531,-25.879,-3.418,0
5.295,-13.184,-21.484,-23.926,-20.508,0
5.299,-33.203,-38.086,-12.695,-52.734,0
5.303,-40.527,-24.902,-2.930,-57.617,0
5.307,-49.316,-16.602,0.000,-48.340,NaN
5.311,-56.152,-42.480,-4.883,-36.133,0
5.315,-48.340,-50.293,-7.324,-27.344,NaN
5.318,-54.199,-43.945,-14.648,-37.109,0
5.322,-57.129,-33.203,-23.926,-41.992,0
5.326,-46.875,-37.598,-49.805,-42.969,0
5.330,-44.922,-39.551,-46.875,-40.527,NaN
5.334,-45.898,-20.020,-28.809,-38.574,0
5.338,-48.828,-26.855,-28.809,-48.340,0
5.340,-49.316,-44.922,-17.578,-39.062,NaN
5.344,-33.203,-25.391,-9.766,-18.555,0
5.348,-22.949,-27.832,-12.207,-12.695,0
5.352,-20.508,-54.688,1.465,-15.137,0
5.356,-26.367,-59.082,-1.465,-17.090,0
5.360,-31.738,-39.551,-32.227,-16.113,NaN
5.363,-45.898,-19.043,-28.320,-26.855,0
5.367,-54.199,-27.344,-3.418,-39.551,0
5.371,-41.016,-21.484,-23.926,-28.320,0
5.375,-35.156,-12.695,-41.016,-11.230,0
5.379,-37.109,-32.227,-14.160,-23.926,0
5.383,-47.852,-41.992,0.488,-35.156,NaN
5.385,-49.805,-24.902,0.488,-28.320,0
5.389,-47.852,-30.273,2.930,-33.691,0
5.393,-45.410,-35.156,-6.836,-31.738,NaN
5.397,-37.109,-24.414,-19.531,-32.227,0
5.401,-20.020,-30.762,-24.414,-15.137,0
5.405,-11.230,-52.246,-37.598,-2.930,0
5.408,-23.926,-69.336,-37.598,-24.414,0
5.412,-44.434,-67.871,-39.551,-46.387,NaN
5.416,-52.246,-40.039,-28.320,-47.363,0
5.420,-43.457,-17.578,-4.883,-43.945,0
5.424,-35.645,-9.766,-7.324,-41.016,0
5.428,-35.156,-17.090,-28.809,-31.738,0
5.430,-22.461,-15.625,-37.598,-20.020,NaN
5.434,-13.672,-5.371,-9.766,-17.578,0
5.438,-16.113,-5.859,-19.531,-27.832,0
5.442,-26.855,-35.156,-42.480,-26.367,0
5.446,-38.086,-47.363,-20.020,-35.156,0
5.450,-37.598,-37.109,-1.465,-41.016,NaN
5.453,-28.320,-47.852,-18.066,-39.062,0
5.457,-28.809,-46.875,-50.293,-43.945,0
5.461,-32.715,-49.316,-49.805,-38.086,0
5.465,-36.133,-57.617,-27.344,-37.109,NaN
5.469,-39.062,-23.926,-5.859,-28.320,0
5.473,-34.180,4.883,-23.926,-11.230,0
5.490,-29.297,-7.812,-45.898,-10.742,0
5.494,-24.414,-51.270,-48.828,-25.391,0
5.498,-21.484,-46.875,-41.992,-29.297,NaN
5.502,-31.738,-2.930,-21.973,-26.367,0
5.506,-50.781,-14.648,-18.066,-33.691,0
5.510,-37.109,-20.508,-18.555,-39.551,0
5.513,-23.438,-15.137,-18.555,-25.391,0
5.517,-35.645,-27.832,-18.066,-24.414,NaN
5.521,-42.480,-45.898,-24.414,-36.133,NaN
5.525,-46.387,-44.434,-25.391,-34.668,NaN
5.529,-46.387,-19.531,-29.785,-32.227,0
5.533,-40.039,-3.418,-44.434,-32.715,0
5.521,-36.133,-8.301,-44.922,-28.809,0
5.525,-36.133,-19.531,-31.738,-23.438,0
5.529,-29.297,-38.086,-16.602,-26.367,NaN
5.533,-37.598,-40.527,-24.902,-32.715,NaN
5.537,-49.805,-26.855,-41.992,-42.480,0
5.541,-55.176,-34.668,-42.969,-41.992,NaN
5.544,-45.898,-33.203,-33.691,-24.902,0
5.548,-25.879,-22.461,-24.902,-13.184,0
5.552,-25.391,-18.066,-29.297,-20.508,0
5.556,-31.738,-23.438,-36.621,-33.203,0
5.560,-23.438,-41.504,-17.090,-24.414,0
5.564,-20.508,-25.879,-16.113,-10.254,NaN
5.566,-32.227,-4.395,-30.273,-24.414,0
5.570,-42.480,-23.926,-25.879,-41.504,0
5.574,-44.434,-28.320,-20.996,-41.504,0
5.578,-31.250,-19.043,-12.207,-25.879,0
5.582,-32.227,-38.574,-31.250,-18.555,NaN
5.586,-33.203,-37.109,-57.129,-21.484,0
5.589,-31.250,-16.113,-35.645,-21.484,0
5.593,-45.898,-10.742,-12.695,-35.156,0
5.597,-33.203,-8.301,-6.836,-26.855,0
5.601,-10.742,-16.113,-32.715,-5.859,0
5.605,-26.855,-26.367,-54.688,-11.719,NaN
5.609,-50.781,-26.367,-32.227,-37.109,0
5.625,-52.734,-33.203,-0.977,-43.945,0
5.629,-38.086,-40.527,9.766,-26.855,NaN
5.633,-30.762,-30.762,-11.719,-19.043,0
5.637,-38.086,-40.039,-37.109,-16.602,0
5.641,-46.875,-37.109,-30.273,-19.043,NaN
5.645,-44.922,-15.137,-24.902,-28.809,0
5.648,-32.227,-11.230,-22.461,-22.949,0
5.652,-30.762,-17.578,-28.809,-10.254,NaN
5.656,-32.227,-24.902,-52.246,-14.160,0
5.660,-25.879,-18.555,-45.410,-16.602,0
5.664,-33.203,-22.949,-27.344,-13.672,0
5.668,-37.598,-44.434,-11.719,-21.484,NaN
5.670,-11.230,-28.809,3.418,-14.160,0
5.674,-3.906,-26.367,-7.812,-10.742,0
5.678,-26.855,-46.875,-34.180,-41.504,0
5.682,-38.086,-30.273,-30.762,-48.340,NaN
5.686,-45.898,-3.418,-19.043,-40.039,0
5.690,-47.363,0.977,-19.531,-42.480,0
5.693,-44.922,-14.648,-37.109,-37.598,0
5.697,-39.062,-20.996,-52.246,-34.180,0
5.701,-39.062,-44.922,-59.082,-27.832,NaN
5.705,-50.781,-63.477,-36.621,-26.855,0
5.709,-53.223,-54.199,4.395,-38.574,0
5.713,-44.922,-48.828,9.766,-41.504,0
5.715,-31.738,-40.527,12.695,-28.809,NaN
5.719,-25.391,-39.062,6.348,-13.672,0
5.723,-28.320,-41.992,-14.160,-21.484,0
5.727,-41.504,-47.363,-16.602,-35.156,NaN
5.731,-48.340,-23.926,-19.531,-41.992,0
5.735,-54.688,-0.488,-34.668,-55.664,0
5.738,-53.223,-4.883,-44.434,-51.270,0
5.742,-36.133,-10.254,-32.715,-37.598,0
5.746,-23.438,-15.625,-23.926,-20.508,0
5.750,-20.508,-27.832,-29.785,-19.531,0
5.754,-22.461,-41.504,-23.438,-33.203,NaN
5.758,-27.832,-57.617,-10.254,-34.668,0
5.760,-34.668,-64.941,-17.578,-35.645,0
5.764,-36.133,-32.715,-20.020,-33.203,NaN
5.768,-34.180,-22.949,-10.742,-27.832,0
5.772,-41.016,-19.043,-8.301,-35.156,0
5.776,-47.363,-11.230,-22.461,-46.875,0
5.780,-55.176,-8.301,-47.852,-48.828,0
5.783,-56.152,-9.277,-42.969,-41.992,0
5.787,-42.480,-13.184,-22.949,-35.645,NaN
5.791,-44.922,-23.438,-17.578,-41.016,0
5.795,-50.293,-47.363,-4.883,-43.457,0
5.799,-45.410,-62.012,-4.883,-39.551,0
5.803,-45.898,-62.500,-34.180,-39.551,0
5.806,-37.109,-31.250,-43.457,-30.273,NaN
5.810,-32.227,-8.301,-25.879,-17.578,0
5.814,-40.039,-44.434,-18.066,-23.438,0
5.818,-45.410,-54.199,-30.273,-36.133,NaN
5.822,-41.992,-6.348,-28.320,-35.156,0
5.826,-36.621,7.812,0.000,-32.715,NaN
5.829,-41.016,-7.324,9.766,-38.086,0
5.833,-42.480,-20.996,-7.812,-42.480,0
5.837,-43.457,-31.738,-24.414,-38.574,NaN
5.841,-47.363,-30.273,-33.691,-48.828,0
5.845,-39.062,-34.180,-26.855,-56.152,0
5.849,-34.180,-42.480,-22.461,-44.434,NaN
5.850,-60.547,-33.691,-41.992,-47.363,0
5.854,-46.875,-34.668,-32.715,-40.527,NaN
5.858,-13.184,-32.227,-18.066,-26.367,0
5.862,-47.852,-13.672,-25.391,-66.406,0
5.866,-98.633,-1.465,-18.066,-108.887,0
5.870,-116.699,-6.836,-14.160,-119.141,0
5.873,-116.211,-15.625,-21.484,-125.488,NaN
5.877,-135.254,-7.324,-29.297,-137.695,0
5.881,-165.527,-2.930,-36.621,-164.062,0
5.885,-173.828,-17.578,-43.945,-186.035,0
5.889,-183.105,-5.371,-47.852,-204.102,0
5.893,-192.383,27.344,-54.688,-217.285,0
5.910,-206.055,33.691,-62.500,-246.582,0
5.914,-226.562,20.996,-81.543,-272.949,0
5.918,-219.238,14.160,-96.191,-250.000,0
5.922,-215.332,18.555,-68.848,-251.953,0
5.926,-239.746,24.902,-62.500,-280.273,NaN
5.930,-255.371,17.578,-56.152,-281.738,0
5.933,-247.559,-7.812,-41.992,-287.598,0
5.937,-250.488,29.297,-48.340,-294.922,0
5.941,-262.207,70.801,-59.570,-294.922,0
5.945,-243.164,68.359,-69.824,-280.762,NaN
5.949,-220.703,64.453,-62.500,-256.836,NaN
5.953,-223.145,50.781,-58.594,-254.395,NaN
5.940,-205.078,37.598,-66.895,-239.746,NaN
5.944,-190.918,27.832,-72.266,-231.934,NaN
5.948,-197.754,37.109,-53.711,-244.629,0
5.952,-191.895,36.133,-41.504,-231.934,0
5.956,-144.043,41.016,-55.664,-191.406,0
5.960,-114.258,26.367,-64.453,-161.621,NaN
5.963,-117.676,1.953,-79.102,-154.785,0
5.967,-90.332,33.203,-74.219,-133.789,0
5.971,-74.219,62.012,-69.824,-123.047,0
5.975,-50.781,48.828,-84.473,-94.238,0
5.979,-48.828,18.555,-77.637,-88.379,0
5.983,-68.359,-1.953,-65.918,-107.422,NaN
5.986,-49.316,-7.324,-72.266,-84.961,0
5.990,-39.551,-15.137,-67.383,-71.289,0
5.994,-30.273,-2.441,-57.129,-55.664,NaN
5.998,-5.859,0.977,-57.617,-24.902,0
6.002,7.324,-25.879,-62.988,-20.020,0
6.006,0.000,-12.207,-52.246,-26.855,0
6.009,-1.465,-3.418,-53.711,-33.691,NaN
6.013,32.715,-51.270,-127.441,-18.555,0
6.017,52.734,-24.902,-129.883,16.602,0
6.021,14.160,28.320,-38.574,-3.906,0
6.025,-22.949,14.648,2.930,-34.668,0
6.029,-18.066,-3.418,-14.648,-53.223,0
6.046,-1.465,-17.578,-40.039,-33.691,0
6.050,10.254,-38.574,-39.551,3.418,0
6.054,36.133,-25.391,-37.109,5.371,0
6.058,28.809,-5.859,-49.316,-5.859,NaN
6.062,27.344,-22.949,-52.734,7.324,0
6.066,30.762,-26.367,-37.109,24.902,0
6.069,33.691,-18.555,-25.879,32.227,0
6.073,47.363,-20.020,-42.480,33.691,0
6.077,36.133,-18.555,-62.988,18.066,0
6.081,26.367,-23.926,-56.152,5.371,NaN
6.085,30.273,-27.832,-38.086,6.348,0
6.089,38.574,-33.203,-21.973,20.996,0
6.090,33.203,-50.781,-22.461,30.273,NaN
6.094,38.574,-22.461,-23.438,32.227,0
6.098,53.223,-14.160,-19.531,36.133,0
6.102,32.715,-25.879,-33.203,20.996,0
6.106,10.742,-32.715,-50.293,10.742,0
6.110,27.344,-41.016,-44.922,33.203,NaN
6.113,21.973,-42.480,-28.809,36.621,0
6.117,21.484,-41.016,-32.715,31.738,0
6.121,27.832,-39.062,-39.062,24.902,0
6.125,10.254,-41.504,-36.621,13.672,NaN
6.129,1.953,-48.828,-27.344,3.418,0
6.133,9.277,-37.109,-27.344,3.906,0
6.135,37.598,-30.273,-56.152,5.859,0
6.139,32.715,-31.250,-52.734,12.207,0
6.143,10.254,-19.531,-26.367,24.414,NaN
6.147,-0.977,-25.391,-39.062,19.043,0
6.151,15.137,-31.250,-32.227,15.137,0
6.155,21.973,-31.738,-5.371,6.836,0
6.158,-2.930,-23.926,-16.113,-13.672,NaN
6.162,-15.137,-35.645,-32.715,-10.254,0
6.166,-17.090,-44.922,-20.020,3.906,0
6.170,18.555,-18.066,-10.742,0.488,0
6.174,37.598,-20.996,-39.062,-12.207,0
6.178,10.742,-51.270,-62.500,0.977,NaN
6.180,-5.859,-32.227,-39.551,18.555,0
6.184,17.578,-4.395,-19.043,11.719,0
6.188,-3.906,-17.090,-10.742,-3.906,0
6.192,-20.020,-31.738,2.441,-8.789,NaN
6.196,-3.418,-24.902,-8.789,-20.996,0
6.200,-16.602,-31.738,-18.066,-39.062,0
6.203,-21.973,-54.199,-5.859,-9.277,0
6.207,-21.484,-52.734,-5.859,13.672,NaN
6.211,-10.254,-14.160,-27.832,-16.602,0
6.215,-19.043,13.184,-37.598,-47.363,0
6.219,-49.805,-3.418,-37.109,-42.480,0
6.223,-44.434,-20.020,-41.504,-28.809,NaN
6.225,-38.086,-10.742,-50.781,-43.457,NaN
6.229,-39.062,-14.648,-47.852,-69.824,0
6.233,-44.922,-33.691,-59.570,-75.195,0
6.237,-57.129,-35.156,-77.637,-77.637,0
6.241,-74.707,-24.414,-46.387,-49.316,0
6.245,-59.082,-15.625,-25.391,-48.828,0
6.248,-41.016,-15.625,-26.367,-59.570,NaN
6.252,-23.926,-24.902,-33.203,-47.852,0
6.256,-38.086,-36.133,-32.227,-30.762,0
6.260,-58.105,-43.945,-24.902,-45.410,0
6.264,-16.602,-21.484,-15.625,-48.340,0
6.268,-41.016,0.977,-20.020,-29.297,0
6.271,-40.039,-1.465,-47.852,-54.199,NaN
6.275,-9.766,-23.438,-36.621,-26.367,0
6.279,-50.781,-31.738,-39.062,-16.602,0
6.283,-32.715,-8.789,-36.133,-17.578,0
6.287,-2.930,0.488,-19.043,-28.809,NaN
6.291,-37.598,-20.020,-18.555,-64.941,0
6.294,-46.387,-33.691,-13.672,-17.090,0
6.298,-16.113,-49.316,-23.438,-21.484,0
6.302,-0.488,-44.922,-32.227,-55.664,0
6.306,10.742,0.977,-30.762,-29.785,0
6.310,8.301,-7.324,-29.297,-14.160,0
6.314,-43.457,-31.738,-26.367,-40.039,NaN
6.315,-19.043,-11.230,-39.062,-28.320,NaN
6.319,27.344,-6.348,-43.945,-3.418,0
6.323,3.418,-15.625,-17.578,-8.789,0
6.327,-23.926,-13.184,-11.230,-20.508,0
6.331,-29.297,-3.906,-21.973,-30.762,0
6.335,-25.391,-19.531,-20.996,-41.992,0
6.338,-10.742,-34.668,-18.066,-36.133,NaN
6.342,-17.090,-30.273,-24.902,15.625,0
6.346,-5.371,-32.227,-35.645,4.395,0
6.350,-14.160,-34.180,-34.668,-34.668,0
6.354,-36.133,-30.762,-45.898,-24.414,0
6.358,-20.508,-12.695,-51.758,-25.879,0
6.375,-6.836,-15.137,-32.715,-25.391,0
6.379,6.348,-42.969,-29.297,-14.648,0
6.383,-10.254,-42.480,-15.625,-20.020,NaN
6.387,-22.461,-21.484,4.883,-16.602,0
6.391,-23.438,-8.301,-3.906,-21.973,NaN
6.395,-21.973,-28.320,-26.855,-43.457,0
6.398,-7.324,-33.691,-48.828,-36.133,0
6.402,-44.434,-4.883,-45.898,-35.156,0
6.406,-37.598,10.254,-32.715,-37.109,NaN
6.410,-20.996,-17.578,-29.297,-30.762,0
6.414,-11.719,-47.852,-37.598,-24.414,0
6.418,-5.371,-51.758,-37.109,-9.277,0
6.420,-28.320,-31.250,-10.254,-4.883,NaN
6.424,-22.461,-7.324,1.465,-3.418,0
6.428,-9.766,-12.695,-14.648,-5.371,0
6.432,-18.066,-30.273,-35.156,-36.621,0
6.436,-22.461,-20.020,-29.785,-35.645,NaN
6.440,3.906,-5.859,-13.672,4.883,0
6.443,6.836,-19.043,-14.648,0.977,0
6.447,3.418,-32.715,-28.809,-23.438,0
6.451,-17.578,-32.227,-44.922,-35.645,0
6.455,-44.434,-33.691,-56.641,-33.203,NaN
6.459,-38.086,-29.297,-32.715,-37.598,0
6.463,-42.969,-17.578,-2.930,-66.406,0
6.466,-49.316,-13.672,2.930,-56.641,0
6.470,-24.902,-17.578,-10.742,-30.762,NaN
6.474,-43.945,-41.992,-42.969,-47.363,0
6.478,-39.551,-41.992,-54.199,-30.273,0
6.482,-37.598,-16.113,-39.062,-27.832,0
6.486,-31.250,3.418,-20.020,-51.758,0
6.489,-7.812,-12.695,-9.766,-34.180,0
6.493,-3.906,-40.039,-17.578,-18.066,NaN
6.497,7.324,-14.648,-23.926,-10.742,0
6.501,-7.324,0.977,-22.949,-0.977,0
6.505,-54.199,-9.766,-16.113,-39.062,0
6.509,-75.195,-10.254,-11.719,-54.199,NaN
6.510,-52.246,-34.668,-21.484,-58.594,0
6.514,-48.340,-51.270,-31.250,-57.617,0
6.518,-47.363,-35.156,-27.832,-35.156,NaN
6.522,-38.574,-53.223,-18.555,-30.273,0
6.526,-50.781,-65.430,-20.508,-29.297,0
6.530,-46.875,-40.039,-35.156,-33.691,0
6.533,-47.852,-30.273,-29.785,-31.738,0
6.537,-38.086,-53.223,-23.438,-11.719,NaN
6.541,-5.371,-92.285,-14.648,-20.508,0
6.545,-38.086,-77.637,-20.020,-48.340,0
6.549,-64.941,-13.672,-17.090,-53.223,0
6.553,-50.293,-0.488,2.930,-54.199,NaN
6.555,-57.617,-21.484,-8.789,-35.156,0
6.559,-54.199,-35.645,-11.719,-22.949,0
6.563,-12.207,-28.809,-26.367,-24.414,NaN
6.567,-18.066,-22.461,-55.664,-18.066,0
6.571,-28.809,-42.969,-29.297,-17.090,0
6.575,-13.184,-72.754,-3.906,-23.926,NaN
6.578,-32.715,-44.922,5.371,-12.207,0
6.582,-42.969,-25.879,-4.883,-15.625,NaN
6.586,-38.574,-43.457,-24.902,-43.945,0
6.590,-29.785,-8.301,-12.695,-31.738,0
6.594,-20.020,8.301,-19.531,-22.949,NaN
6.598,-29.785,-21.973,-38.086,-28.320,0
6.600,-24.902,-33.203,-29.785,-23.926,0
6.604,-23.438,-22.461,-25.391,-27.832,NaN
6.608,-23.438,-6.348,-25.391,-23.926,0
6.612,-7.324,-12.695,-22.949,-17.578,0
6.616,-11.719,-46.875,-17.578,-25.391,0
6.620,-24.414,-63.477,-12.207,-29.785,0
6.623,-26.855,-43.457,-17.090,-37.598,0
6.627,-33.691,-12.207,-21.484,-50.781,NaN
6.631,-43.945,-11.230,-34.668,-57.129,0
6.635,-48.340,-17.578,-27.832,-53.711,0
6.639,-37.109,-14.160,-18.066,-41.504,0
6.643,-19.043,-11.230,-31.250,-30.762,0
6.660,-23.438,-41.016,-51.758,-33.691,0
6.664,-38.574,-50.781,-52.734,-43.457,0
6.668,-31.738,-30.762,-11.230,-26.855,NaN
6.672,-30.762,-26.367,3.906,-31.250,0
6.676,-38.574,-19.043,-17.090,-45.898,0
6.680,-33.203,-15.137,-29.785,-36.621,0
6.683,-18.555,-18.555,-27.832,-8.789,0
6.687,-20.996,-25.879,-36.621,-7.324,0
6.691,-27.832,-35.156,-32.715,-26.855,0
6.695,-35.645,-21.484,-16.602,-31.738,NaN
6.699,-38.086,-32.227,-19.531,-32.227,0
6.703,-28.320,-62.988,-13.184,-20.996,0
6.705,-28.320,-40.527,-16.602,-26.367,NaN
6.709,-13.672,-4.395,-24.902,-11.719,0
6.713,-5.371,-6.836,-32.227,3.418,0
6.717,-36.133,-32.227,-40.527,-23.438,0
6.721,-54.688,-33.203,-26.367,-48.340,0
6.725,-53.223,-17.578,-10.742,-51.758,NaN
6.728,-64.941,-23.926,-9.766,-51.270,0
6.732,-66.895,-36.133,-11.230,-47.363,0
6.736,-78.125,-54.199,-8.301,-44.922,NaN
6.740,-79.102,-61.523,-4.395,-41.016,0
6.744,-74.707,-57.129,-6.836,-35.156,0
6.748,-82.031,-47.363,-14.160,-47.852,NaN
6.736,-64.453,-38.574,-24.414,-46.387,0
6.740,-43.457,-31.738,-38.086,-31.250,NaN
6.744,-50.781,-26.855,-31.738,-31.738,NaN
6.748,-62.012,-34.180,-20.508,-42.969,NaN
6.752,-58.594,-32.227,-7.812,-38.574,0
6.756,-58.105,-40.039,-1.465,-40.527,0
6.759,-48.828,-61.523,-17.578,-45.410,0
6.763,-44.434,-55.664,-30.273,-35.645,NaN
6.767,-36.133,-15.625,-22.461,-29.297,0
6.771,-32.715,20.020,-8.789,-21.973,0
6.775,-18.066,21.484,-6.836,-20.020,0
6.779,-24.414,-18.066,-14.648,-32.227,0
6.795,-44.922,-47.852,-23.438,-35.156,0
6.799,-28.320,-26.367,-31.250,-26.855,NaN
6.803,-32.715,-30.273,-45.410,-28.809,0
6.807,-49.805,-34.180,-40.039,-36.621,0
6.811,-45.898,-38.574,-24.902,-31.250,0
6.815,-39.062,-61.523,-15.137,-25.391,0
6.818,-30.762,-27.832,-3.906,-21.973,0
6.822,-21.973,8.789,-14.648,-19.531,NaN
6.826,-15.137,-1.953,-18.555,-16.602,0
6.830,-23.438,-40.527,-12.207,-15.137,0
6.834,-29.785,-42.480,-45.898,-19.043,0
6.838,-35.156,-15.137,-58.105,-27.344,NaN
6.840,-37.598,-18.066,-14.160,-35.156,0
6.844,-38.574,-6.836,3.906,-29.297,0
6.848,-39.551,-15.137,-13.672,-25.879,0
6.852,-26.855,-36.133,-33.203,-30.273,NaN
6.856,-19.043,-11.230,-20.020,-18.066,0
6.860,-32.227,-5.859,0.977,-19.531,0
6.863,-43.945,-25.391,7.324,-27.832,0
6.867,-38.574,-27.832,-11.230,-31.250,0
6.871,-27.832,-21.973,-20.508,-19.043,0
6.875,-29.785,-15.625,-17.578,-16.113,0
6.879,-40.527,-14.160,-19.043,-24.414,NaN
6.883,-39.062,-29.297,-28.809,-19.043,0
6.885,-45.410,-32.715,-48.828,-28.809,0
6.889,-45.410,-9.766,-25.879,-31.250,NaN
6.893,-32.227,-6.348,-5.371,-26.367,0
6.897,-31.250,-29.785,-25.391,-25.879,0
6.901,-34.180,-44.434,-30.762,-28.809,0
6.905,-34.180,-40.039,-14.648,-30.273,0
6.908,-21.484,-17.090,-2.930,-20.020,0
6.912,-24.902,-25.879,-4.883,-20.020,NaN
6.916,-28.320,-39.062,-23.926,-22.461,0
6.920,-20.508,-20.996,-35.156,-14.160,0
6.924,-8.789,-18.555,-17.090,-7.812,0
6.928,-17.578,-10.254,-13.184,-19.043,0
6.930,-44.434,-25.879,-38.574,-32.715,NaN
6.934,-44.434,-43.945,-38.574,-27.832,0
6.938,-29.297,-28.320,-18.555,-14.160,NaN
6.942,-38.086,-34.180,-32.715,-23.438,0
6.946,-43.457,-50.781,-30.273,-21.973,NaN
6.950,-26.855,-42.969,-15.625,-5.371,0
6.953,-31.250,-27.832,-32.715,-8.301,0
6.957,-30.273,-13.672,-22.461,-3.906,0
6.961,-23.926,-21.973,-11.719,-0.488,NaN
6.965,-25.391,-20.996,-25.879,-6.836,0
6.969,-22.949,-17.578,-18.066,-7.812,0
6.973,-20.996,-32.227,-7.812,-6.348,NaN
6.975,-44.434,-33.691,-26.367,-17.090,0
6.979,-71.777,-48.828,-32.715,-37.598,NaN
6.983,-52.734,-35.156,-13.672,-32.227,0
6.987,-37.109,-18.066,-13.184,-27.344,0
6.991,-47.852,-24.414,-31.738,-31.250,0
6.995,-46.875,-24.902,-36.621,-24.902,0
6.998,-47.363,-28.809,-36.621,-28.320,NaN
7.002,-46.875,-17.090,-37.109,-20.996,0
7.006,-36.621,-14.160,-27.832,-7.812,0
7.010,-26.855,-37.598,-21.484,-8.301,0
7.014,-27.344,-33.691,-30.273,-13.672,0
7.018,-43.457,-25.391,-39.062,-21.973,NaN
7.021,-43.457,-35.156,-36.133,-37.598,0
7.025,-34.180,-26.855,-13.672,-35.645,0
7.029,-36.133,-23.438,-0.977,-26.367,0
7.033,-32.715,-23.438,-15.625,-17.090,0
7.037,-37.598,-23.926,-21.484,-23.438,0
7.041,-48.828,-41.992,-25.391,-41.992,NaN
7.044,-46.387,-26.367,-39.062,-31.250,0
7.048,-41.016,-20.996,-45.410,-22.461,0
7.052,-38.086,-42.969,-43.457,-30.273,0
7.056,-36.621,-34.668,-34.668,-34.668,NaN
7.060,-34.668,-23.438,-20.996,-39.062,0
7.064,-30.273,-19.043,-36.133,-34.668,0
7.066,-36.621,-28.809,-38.574,-28.809,0
7.070,-46.875,-56.641,-27.832,-27.344,NaN
7.074,-37.598,-42.969,-23.926,-20.996,0
7.078,-35.645,-9.766,-30.273,-23.926,0
7.082,-40.527,-37.109,-40.527,-33.691,0
7.086,-42.480,-50.293,-39.551,-28.809,NaN
7.089,-30.762,-21.484,-19.043,-6.836,0
7.093,-20.020,-8.789,-20.020,-2.441,0
7.097,-29.785,-13.184,-17.578,-25.391,0
7.101,-24.902,-31.738,-7.324,-17.090,0
7.105,-22.949,-61.035,-16.602,-0.488,0
7.109,-33.691,-51.270,-24.902,-21.484,0
7.125,-41.992,-26.367,-26.367,-44.922,0
7.129,-43.457,-18.555,-14.648,-44.922,0
7.133,-37.109,-10.742,-7.812,-31.738,NaN
7.137,-22.949,0.977,-10.254,-21.973,0
7.141,-17.090,-23.438,-10.742,-22.461,0
7.145,-27.832,-37.109,-18.555,-28.809,0
7.148,-31.738,-6.348,-20.020,-31.738,NaN
7.152,-24.414,-6.348,-28.320,-26.855,0
7.156,-15.625,-33.691,-34.668,-23.438,NaN
7.160,-29.297,-34.668,-9.277,-35.645,0
7.164,-53.223,-27.832,-10.742,-55.176,0
7.168,-51.270,-17.090,-26.855,-62.988,0
7.185,-40.039,0.000,-15.137,-56.152,0
7.189,-42.969,-15.137,-25.391,-56.152,0
7.193,-28.809,-41.992,-37.109,-42.480,0
7.197,-7.324,-20.508,-29.297,-20.020,0
7.201,-20.508,-1.953,-34.180,-35.156,NaN
7.205,-20.996,-4.883,-49.805,-39.062,0
7.208,-17.090,-20.508,-63.477,-35.156,0
7.212,-32.715,-38.574,-60.059,-54.688,0
7.216,-31.738,-14.160,-35.645,-54.688,0
7.220,-33.691,-8.789,-24.902,-46.387,NaN
7.224,-47.363,-19.531,-25.391,-54.688,0
7.228,-43.457,-7.812,-21.973,-50.781,0
7.230,-26.367,-10.254,-18.066,-33.203,NaN
7.234,-8.789,-9.277,-23.926,-18.555,0
7.238,-7.812,-11.719,-52.246,-13.672,0
7.242,-8.789,-37.598,-71.289,-10.254,0
7.246,-16.113,-45.410,-38.086,-18.555,0
7.250,-24.902,-35.645,2.930,-28.809,0
7.253,-20.020,-19.531,3.418,-28.320,NaN
7.257,-14.160,-24.902,-5.859,-21.973,0
7.261,-21.484,-24.902,-23.926,-29.785,0
7.265,-30.273,3.906,-37.598,-40.527,0
7.269,-23.926,0.000,-30.273,-26.855,0
7.273,-14.160,-3.418,-45.898,-9.766,NaN
7.275,-13.672,-15.137,-48.828,-13.672,0
7.279,-23.926,-41.016,-37.598,-26.855,0
7.283,-33.203,-44.434,-27.832,-28.320,0
7.287,-32.227,-32.227,-13.672,-16.602,NaN
7.291,-24.902,-34.668,-16.113,-12.207,0
7.295,-31.738,-44.922,-30.762,-27.832,0
7.298,-32.227,-20.020,-30.273,-31.250,0
7.302,-23.438,6.348,-12.695,-19.043,0
7.306,-24.902,11.719,-17.090,-14.648,NaN
7.310,-16.113,-12.207,-12.695,-9.277,NaN
7.314,-22.461,-44.922,-15.625,-11.230,NaN
7.318,-39.551,-41.504,-36.133,-33.691,0
7.305,-35.645,-32.227,-42.969,-40.039,NaN
7.309,-15.625,-21.973,-26.367,-18.066,0
7.313,-21.973,-13.672,-3.906,-18.066,0
7.317,-43.457,-20.020,-16.602,-31.738,NaN
7.321,-36.133,-17.578,-17.578,-25.391,0
7.325,-33.691,-12.695,-19.043,-26.367,NaN
7.328,-20.996,-30.762,-24.414,-12.207,0
7.332,-2.930,-35.156,-29.297,5.371,0
7.336,-13.184,-12.207,-36.133,-8.301,0
7.340,-30.273,-15.625,-32.227,-28.320,0
7.344,-36.133,-18.555,-26.855,-20.508,NaN
7.348,-28.809,-11.230,-23.926,1.953,0
7.350,-25.391,-27.344,-18.066,-6.836,NaN
7.354,-28.320,-25.391,-12.207,-17.578,0
7.358,-37.109,-16.113,-16.113,-23.438,0
7.362,-36.133,-30.762,-34.668,-31.250,0
7.366,-22.949,-26.367,-27.344,-19.531,NaN
7.370,-28.320,-27.832,-12.695,-15.625,0
7.373,-41.992,-34.668,-27.832,-29.297,0
7.377,-43.457,-31.738,-54.688,-31.250,0
7.381,-33.203,-20.996,-41.992,-14.160,0
7.385,-28.320,-14.160,-6.348,-14.648,NaN
7.389,-42.480,-28.809,-17.578,-39.551,0
7.393,-44.922,-39.551,-35.156,-44.922,0
7.395,-38.086,-27.832,-34.180,-39.551,NaN
7.399,-20.996,-28.320,-26.855,-35.156,0
7.403,-12.207,-39.551,-20.020,-22.461,0
7.407,-28.809,-22.949,-31.250,-31.250,0
7.411,-34.668,-28.809,-50.781,-48.828,0
7.415,-29.297,-36.133,-56.641,-50.781,0
7.418,-37.109,-23.926,-50.781,-49.316,NaN
7.422,-40.527,-22.949,-23.926,-40.039,0
7.426,-36.133,-34.668,-3.906,-39.551,0
7.430,-21.484,-37.598,-22.461,-41.992,0
7.434,-23.926,-29.785,-37.109,-33.691,NaN
7.438,-24.414,-27.344,-25.879,-12.207,0
7.444,-17.578,-21.973,-35.156,-11.230,0
7.448,-28.809,-19.531,-47.363,-21.484,NaN
7.452,-43.945,-29.785,-29.785,-32.715,0
7.456,-57.617,-36.621,-19.531,-46.387,0
7.460,-53.223,-22.949,-42.969,-41.992,0
7.464,-40.039,-24.902,-49.316,-28.809,0
7.467,-27.344,-46.387,-10.254,-24.414,0
7.471,-25.879,-38.574,5.859,-18.555,NaN
7.475,-29.785,-41.992,-10.742,-18.066,0
7.479,-22.949,-34.180,-20.020,-16.113,0
7.483,-15.137,-3.906,-25.391,-9.277,0
7.487,-34.180,-7.324,-31.250,-33.203,NaN
7.486,-40.039,-22.949,-30.762,-30.762,NaN
7.490,-26.367,-19.531,-41.504,-13.672,0
7.494,-43.457,-37.109,-47.363,-37.598,0
7.498,-48.828,-35.156,-29.297,-48.340,0
7.502,-29.785,-13.184,-8.301,-26.855,0
7.506,-31.738,-23.438,-6.836,-21.973,NaN
7.509,-25.879,-30.762,-22.461,-20.020,0
7.513,-30.762,-31.738,-46.387,-25.391,0
7.517,-51.270,-17.578,-47.363,-33.203,NaN
7.521,-58.105,-24.414,-21.484,-37.109,0
7.525,-32.227,-21.973,-14.648,-23.438,0
7.529,-9.277,-4.395,-41.992,-0.977,0
7.545,-41.992,-24.902,-32.715,-17.578,0
7.549,-70.801,-24.902,-1.465,-41.992,0
7.553,-74.707,-21.484,-5.371,-49.805,0
7.557,-74.707,-40.527,-0.977,-54.199,0
7.561,-62.012,-53.711,4.395,-37.598,NaN
7.565,-66.895,-76.660,-6.836,-35.645,0
7.568,-83.984,-63.477,-20.020,-51.270,0
7.572,-70.312,-36.621,-24.414,-34.180,0
7.576,-58.105,-50.293,-30.273,-17.578,0
7.580,-67.871,-75.684,-29.785,-33.691,NaN
7.584,-72.266,-63.477,-11.719,-48.828,0
7.588,-57.129,-32.715,3.418,-27.832,0
7.590,-45.898,-40.039,-1.953,-6.836,NaN
7.594,-63.965,-56.152,-11.230,-25.391,0
7.598,-66.895,-55.176,-7.324,-40.527,0
7.602,-65.918,-44.434,-14.648,-39.062,0
7.606,-66.406,-39.062,-22.949,-36.621,NaN
7.610,-54.688,-41.016,-11.230,-23.926,0
7.613,-53.711,-33.203,-0.488,-18.066,0
7.617,-55.664,-32.715,-10.742,-28.809,0
7.621,-42.969,-43.457,-11.719,-16.113,0
7.625,-41.016,-38.574,-11.230,-2.930,0
7.629,-55.176,-31.738,-28.320,-22.461,0
7.633,-39.062,-45.410,-17.090,-15.625,NaN
7.635,-38.086,-33.691,-10.254,-17.578,0
7.639,-57.129,-8.301,-26.855,-36.133,0
7.643,-58.105,-50.293,-17.090,-38.086,0
7.647,-47.363,-59.082,0.000,-34.668,NaN
7.651,-40.527,-17.090,-6.348,-29.297,0
7.655,-37.598,-9.766,-34.180,-30.273,0
7.658,-39.551,-23.438,-38.086,-32.715,0
7.662,-34.668,-41.016,-10.742,-22.461,0
7.666,-17.578,-31.738,-2.441,-6.836,NaN
7.670,-8.789,-12.207,-9.766,-0.977,0
7.674,-20.508,-28.809,-25.391,-13.672,0
7.678,-40.527,-26.367,-28.809,-35.156,0
7.680,-44.922,-10.254,-17.090,-24.414,NaN
7.684,-43.945,-32.715,-22.461,-22.949,0
7.688,-43.457,-41.016,-32.715,-39.062,0
7.692,-40.039,-58.105,-30.273,-42.969,0
7.696,-35.156,-85.938,-26.367,-32.715,0
7.700,-32.227,-47.363,-40.039,-23.926,NaN
7.703,-38.574,-3.906,-40.527,-28.809,0
7.707,-41.016,-16.113,-18.066,-32.227,0
7.711,-33.203,-35.645,-6.348,-26.367,0
7.715,-35.645,-28.320,-13.184,-25.879,NaN
7.719,-41.504,-16.113,-29.785,-29.785,0
7.723,-39.551,-26.855,-28.320,-24.902,0
7.756,-39.551,-48.340,-34.180,-25.391,0
7.760,-36.621,-41.504,-31.738,-28.320,0
7.764,-39.062,-31.738,-28.809,-31.738,0
7.768,-49.805,-10.742,-46.387,-40.527,0
7.772,-54.199,-3.418,-37.598,-45.898,NaN
7.776,-53.223,-54.688,-15.137,-49.805,NaN
7.779,-41.992,-41.992,-2.930,-37.109,NaN
7.783,-48.828,-8.789,-28.809,-36.621,NaN
7.787,-40.527,-10.742,-45.410,-42.969,0
7.791,-15.137,-23.438,-42.969,-26.367,0
7.795,-13.184,-34.180,-38.574,-16.602,NaN
7.799,-26.367,-27.344,-15.625,-24.414,NaN
7.770,-37.598,-28.320,2.930,-36.133,NaN
7.774,-41.504,-22.949,-14.648,-43.945,0
7.778,-31.250,-32.715,-37.109,-34.180,0
7.782,-8.789,-29.785,-27.832,-9.766,0
7.786,-16.602,-12.695,-17.090,-19.043,NaN
7.790,-40.039,-19.531,-16.113,-38.086,NaN
7.793,-47.852,-16.602,-10.742,-36.133,NaN
7.797,-50.293,-17.578,-11.230,-34.180,0
7.801,-52.734,-37.598,-17.090,-31.738,0
7.805,-47.852,-52.246,-9.766,-23.926,0
7.809,-50.781,-62.012,0.488,-22.949,NaN
7.813,-67.871,-67.871,6.348,-41.504,0
7.815,-76.660,-87.402,-16.113,-46.387,0
7.819,-63.965,-73.242,-33.691,-33.691,NaN
7.823,-48.340,-33.691,-23.438,-14.648,0
7.827,-55.176,-22.949,-25.879,-19.043,0
7.831,-54.688,-0.977,-4.883,-35.645,0
7.835,-45.898,-25.879,4.883,-33.203,0
7.838,-51.270,-42.480,-4.395,-32.227,NaN
7.842,-56.152,-18.555,-10.742,-32.715,0
7.846,-46.387,-35.645,-29.297,-25.391,0
7.850,-34.180,-59.082,-25.879,-13.672,0
7.854,-48.340,-58.105,-33.691,-27.344,NaN
7.858,-45.898,-34.668,-39.551,-25.879,0
7.860,-20.508,-4.395,-6.348,-9.766,0
7.864,-23.926,-12.207,11.230,-20.996,0
7.868,-43.945,-31.738,-10.254,-33.203,NaN
7.872,-44.434,-47.363,-30.762,-34.180,0
7.876,-28.320,-60.547,-40.039,-28.320,0
7.880,-21.484,-49.805,-41.504,-14.648,0
7.883,-17.090,-22.461,-41.016,-9.766,NaN
7.887,-25.391,-19.043,-34.180,-19.531,0
7.891,-32.715,-28.809,-20.996,-22.949,NaN
7.895,-15.137,-14.160,-14.160,-18.555,0
7.899,-19.043,-23.926,-6.348,-18.555,0
7.903,-25.879,-24.414,-17.090,-14.160,0
7.920,-23.926,-32.227,-29.785,-17.578,0
7.924,-31.738,-65.918,-36.621,-31.738,0
7.928,-36.621,-55.176,-37.598,-32.227,0
7.932,-31.738,-22.949,-15.625,-20.996,NaN
7.936,-28.809,-22.949,-32.227,-24.902,0
7.940,-27.832,-19.043,-46.387,-26.855,NaN
7.943,-21.973,3.906,-11.719,-12.695,0
7.947,-19.043,0.000,0.000,-6.348,0
7.951,-21.484,-16.602,-21.484,-17.578,0
7.955,-20.996,-32.227,-40.527,-13.672,NaN
7.959,-24.414,-43.457,-37.109,-16.113,0
7.963,-31.250,-35.645,-18.555,-37.109,0
7.966,-38.574,-32.227,-19.043,-43.457,0
7.970,-43.457,-45.410,-21.973,-38.574,0
7.974,-44.434,-40.527,-34.668,-41.992,NaN
7.978,-40.039,-7.324,-36.133,-38.086,0
7.982,-32.227,-6.836,-16.113,-27.832,0
7.986,-22.949,-20.996,-17.578,-26.367,0
7.989,-31.738,-29.785,-29.297,-35.645,0
7.993,-42.480,-48.340,-18.555,-47.363,NaN
7.997,-42.969,-49.805,-8.789,-52.246,0
8.001,-48.340,-23.438,-13.672,-53.711,0
8.005,-40.039,-31.738,-35.156,-44.434,0
8.009,-27.344,-48.828,-42.969,-26.367,NaN
8.010,-32.227,-12.207,-24.902,-23.438,0
8.014,-34.180,3.906,-27.344,-29.297,0
8.018,-18.555,-10.742,-10.254,-22.949,0
8.022,-8.789,-41.016,-5.859,-5.371,NaN
8.026,-27.832,-58.105,-27.344,-23.438,0
8.030,-39.062,-18.066,-27.344,-42.969,0
8.033,-37.109,2.930,-22.461,-51.758,0
8.037,-31.250,-5.859,-22.949,-48.828,0
8.041,-23.438,-16.602,-44.922,-37.598,NaN
8.045,-14.160,-13.184,-48.340,-32.227,0
8.049,-2.441,-9.766,-47.363,-22.461,0
8.053,8.789,-25.879,-34.180,-6.836,0
8.055,0.977,-29.297,-11.230,-2.441,NaN
8.059,-29.785,-24.902,-31.250,-25.391,0
8.063,-41.992,-18.555,-28.320,-41.016,0
8.067,-44.434,-17.578,-20.508,-46.387,0
8.071,-43.457,-24.902,-18.555,-41.992,NaN
8.075,-24.902,-13.184,-4.883,-25.879,0
8.078,-13.184,-4.883,-24.902,-15.625,0
8.082,-24.414,-17.578,-41.016,-27.344,NaN
8.086,-25.391,-47.852,-34.668,-37.598,0
8.090,-25.879,-29.785,-25.391,-33.691,0
8.094,-39.062,-21.973,-23.926,-40.527,0
8.098,-33.691,-31.250,-30.273,-39.062,NaN
8.100,-32.227,-24.902,-34.180,-39.062,0
8.104,-33.203,-34.668,-30.762,-38.086,0
8.108,-24.902,-18.066,-18.066,-20.996,0
8.112,-28.809,8.301,-33.203,-21.484,NaN
8.116,-16.113,-3.906,-48.340,-11.230,0
8.120,-19.531,-48.340,-28.320,-12.695,0
8.123,-33.691,-42.480,-27.832,-22.461,0
8.127,-26.367,-12.695,-35.156,-13.184,NaN
8.131,-30.273,-1.953,-13.184,-19.531,0
8.135,-41.016,-0.488,-18.555,-34.180,0
8.139,-33.691,2.441,-25.391,-30.273,0
8.143,-25.879,-1.465,-23.926,-24.414,0
8.146,-37.109,-39.062,-39.062,-36.621,NaN
8.150,-28.320,-48.828,-41.504,-22.949,0
8.154,-20.020,-28.809,-24.414,-18.555,0
8.158,-47.363,-39.551,-33.691,-43.457,0
8.162,-46.387,-24.414,-37.598,-40.039,NaN
8.166,-25.879,1.953,-20.508,-26.855,0
8.169,-31.250,-12.207,-35.645,-28.809,0
8.173,-39.062,-25.879,-27.344,-35.156,0
8.177,-31.250,-21.484,-12.207,-28.809,0
8.181,-29.297,-22.949,-22.949,-23.438,0
8.185,-30.762,-27.344,-19.043,-22.461,NaN
8.189,-19.531,-22.949,-13.184,-15.625,0
8.190,-22.461,-21.484,-32.227,-27.832,NaN
8.194,-32.227,-38.086,-41.992,-29.297,0
8.198,-35.156,-52.734,-28.809,-20.508,0
8.202,-31.738,-47.363,-22.461,-23.438,0
8.206,-15.625,-20.508,-20.996,-20.996,0
8.210,-17.578,-2.930,-11.230,-17.090,NaN
8.213,-20.508,4.883,0.488,-3.906,0
8.217,-8.301,2.441,8.301,2.441,0
8.221,-8.789,-23.438,-12.695,-8.789,0
8.225,-30.273,-40.039,-45.410,-31.738,0
8.229,-41.504,-26.855,-32.227,-49.805,NaN
8.233,-42.480,-20.996,-14.160,-49.805,0
8.251,-39.062,-35.156,-24.414,-37.598,0
8.255,-34.668,-54.199,-33.691,-27.832,NaN
8.259,-28.320,-37.109,-29.785,-32.227,0
8.263,-22.949,-21.484,-18.066,-27.344,0
8.267,-28.320,-12.695,-10.742,-14.160,NaN
8.271,-26.855,-19.531,-29.785,-4.395,0
8.274,-21.484,-17.578,-28.320,-0.488,0
8.278,-38.574,-10.254,-22.461,-32.227,0
8.282,-42.969,-21.484,-28.809,-45.410,NaN
8.286,-29.785,-16.602,-15.625,-25.879,NaN
8.290,-38.574,-25.879,-22.949,-31.738,0
8.294,-46.875,-32.227,-39.551,-40.039,0
8.295,-35.156,-41.992,-30.273,-28.320,NaN
8.299,-22.949,-32.715,-17.090,-16.113,0
8.303,-29.785,-7.324,-27.344,-29.297,0
8.307,-41.504,-20.020,-34.180,-45.410,NaN
8.311,-41.504,-36.621,-34.668,-41.504,0
8.315,-46.875,-38.086,-41.016,-38.574,0
8.318,-43.457,-11.230,-46.387,-38.574,0
8.322,-33.691,-10.742,-42.969,-32.715,0
8.326,-31.250,-23.926,-29.297,-33.691,0
8.330,-17.578,-39.062,-7.324,-18.555,NaN
8.334,-18.066,-50.781,-0.977,-13.184,0
8.338,-34.668,-30.762,-17.090,-33.203,0
8.340,-41.016,-11.719,-22.949,-38.086,NaN
8.344,-31.250,-5.859,-11.719,-30.273,0
8.348,-22.949,-1.953,-26.855,-26.855,0
8.352,-20.508,-12.207,-51.270,-28.809,0
8.356,-28.809,-27.344,-67.383,-34.668,0
8.360,-37.109,-27.832,-45.410,-36.621,NaN
8.363,-35.645,-25.391,8.301,-36.133,0
8.367,-36.621,-33.691,10.742,-40.039,0
8.371,-34.180,-27.344,-2.930,-38.086,0
8.375,-28.809,-28.320,-11.230,-34.668,NaN
8.379,-21.484,-41.016,-36.621,-33.203,0
8.383,-27.344,-19.531,-42.969,-39.551,0
8.385,-41.992,-7.812,-36.133,-51.270,0
8.389,-35.645,-23.438,-39.551,-42.969,NaN
8.393,-27.344,-31.738,-26.855,-33.203,0
8.397,-30.762,-14.160,-8.789,-37.109,0
8.401,-48.828,-30.273,-10.254,-51.758,0
8.405,-52.734,-52.246,-22.461,-48.340,0
8.408,-41.504,-33.691,-37.598,-38.574,NaN
8.412,-37.109,-29.297,-25.391,-44.434,0
8.416,-33.203,-24.414,-2.930,-39.551,0
8.420,-38.086,-18.066,-19.531,-39.062,0
8.424,-32.715,-11.719,-56.152,-32.227,0
8.428,-23.926,-0.488,-46.875,-23.926,NaN
8.431,-35.156,-16.113,-3.418,-33.691,0
8.435,-45.410,-34.180,-7.324,-44.434,0
8.439,-40.039,-47.852,-28.320,-40.039,NaN
8.443,-43.457,-33.203,-32.227,-41.016,0
8.447,-41.992,-9.766,-23.438,-40.039,0
8.451,-26.367,0.488,-20.996,-34.668,0
8.454,-20.508,-7.812,-22.949,-26.367,0
8.458,-23.926,-30.762,-31.738,-23.438,NaN
8.462,-27.832,-18.066,-36.621,-33.203,0
8.466,-23.926,2.930,-21.484,-33.203,0
8.470,-26.855,-31.250,-30.762,-24.902,0
8.474,-37.598,-58.105,-39.551,-37.109,NaN
8.476,-35.156,-39.062,-24.414,-41.016,0
8.480,-27.832,-24.414,-17.578,-27.832,0
8.484,-33.691,-19.531,-26.367,-31.738,NaN
8.488,-35.156,-30.273,-29.297,-37.598,0
8.492,-20.508,-6.836,-16.113,-27.832,0
8.496,-23.438,9.766,-16.602,-26.855,0
8.499,-34.668,-11.230,-20.508,-37.109,0
8.503,-39.062,-43.945,-46.875,-40.527,NaN
8.507,-46.387,-64.453,-63.477,-45.898,0
8.511,-46.387,-29.297,-17.090,-39.551,0
8.515,-37.598,-9.277,10.742,-19.531,0
8.519,-42.969,-30.273,-15.625,-34.180,NaN
8.520,-46.875,-31.738,-28.809,-51.270,0
8.524,-24.902,-13.184,-20.996,-34.668,0
8.528,-1.465,-10.254,-20.996,-12.207,NaN
8.532,-24.414,-33.691,-39.551,-35.156,0
8.536,-60.059,-30.273,-41.504,-62.012,0
8.540,-47.363,-8.789,-7.812,-46.875,0
8.543,-27.832,-23.926,-13.184,-33.691,0
8.547,-41.504,-41.992,-32.227,-40.039,NaN
8.551,-50.293,-50.293,-22.949,-46.875,0
8.555,-50.293,-71.289,-21.973,-39.062,0
8.559,-48.828,-54.199,-14.160,-22.949,0
8.563,-47.363,-24.902,1.953,-20.020,0
8.567,-50.293,-21.484,-9.277,-25.391,0
8.571,-48.340,-25.391,-29.297,-32.227,NaN
8.575,-41.504,-34.668,-26.367,-36.133,0
8.579,-36.621,-50.781,-25.879,-33.203,0
8.583,-47.363,-39.062,-36.621,-41.016,0
8.587,-37.598,-18.066,-20.996,-35.156,NaN
8.590,-22.949,-48.828,-8.789,-29.785,0
8.594,-26.855,-49.316,-8.789,-32.715,0
8.598,-31.738,-12.207,0.488,-25.391,0
8.602,-27.344,-6.348,3.906,-11.719,0
8.606,-25.879,-16.602,-14.160,-5.371,NaN
8.610,-41.016,-19.043,-34.180,-18.066,0
8.625,-48.828,-27.344,-23.438,-32.227,0
8.629,-41.504,-45.898,4.883,-31.250,NaN
8.633,-41.504,-44.434,-12.207,-36.133,0
8.637,-36.133,-25.391,-47.363,-39.551,0
8.641,-33.691,-26.855,-46.387,-30.762,NaN
8.645,-18.066,-29.785,-13.672,-14.160,0
8.648,-12.207,-17.090,-9.277,-6.836,0
8.652,-24.902,-6.836,-17.578,-17.578,NaN
8.656,-31.738,-22.461,-14.160,-28.320,0
8.660,-37.109,-41.016,-20.020,-35.645,NaN
8.664,-32.227,-34.180,-12.695,-29.297,0
8.668,-43.457,-40.527,-19.043,-38.086,NaN
8.670,-56.641,-38.086,-28.809,-51.270,0
8.674,-52.734,-6.836,-18.066,-51.270,0
8.678,-50.293,-6.348,-8.789,-48.340,0
8.682,-46.875,-23.926,-8.301,-44.434,0
8.686,-50.781,-19.531,-3.906,-53.711,NaN
8.690,-65.430,-16.602,-23.926,-62.012,0
8.693,-72.754,-27.344,-40.039,-58.105,0
8.697,-84.961,-52.246,-16.602,-75.684,0
8.701,-110.352,-43.945,-3.418,-99.121,0
8.705,-124.512,-10.742,-1.953,-109.375,NaN
8.709,-112.305,-14.648,11.230,-101.562,0
8.713,-119.629,-24.902,16.113,-114.258,0
8.717,-156.250,-21.484,9.766,-150.879,0
8.721,-178.223,-24.902,4.883,-174.805,NaN
8.725,-188.477,-14.160,31.250,-189.453,0
8.729,-204.102,-20.508,36.621,-199.219,0
8.733,-214.844,-35.645,34.180,-205.078,0
8.737,-202.637,-12.207,66.406,-192.383,0
8.740,-197.266,4.395,63.965,-186.035,NaN
8.744,-203.125,-9.277,29.297,-189.941,0
8.748,-210.938,-23.926,34.668,-196.289,0
8.752,-215.332,-22.461,65.918,-208.984,0
8.756,-204.102,-33.203,74.219,-200.195,0
8.760,-185.547,-42.969,57.129,-178.711,NaN
8.760,-159.668,-23.926,31.738,-155.762,NaN
8.764,-132.812,4.883,21.973,-129.395,0
8.768,-114.746,15.625,11.719,-115.723,0
8.772,-117.676,-13.184,-17.090,-114.746,0
8.776,-97.656,-28.809,-7.324,-93.750,NaN
8.780,-74.219,-26.367,6.836,-77.637,0
8.783,-78.125,-64.453,-9.277,-84.473,0
8.787,-66.406,-80.566,-13.672,-62.500,0
8.791,-46.387,-34.180,-29.297,-38.086,0
8.795,-51.270,-26.855,-60.059,-46.387,NaN
8.799,-46.875,-38.574,-62.500,-44.922,0
8.803,-10.254,-20.508,-34.668,-12.695,0
8.805,1.465,-26.855,-48.340,1.953,NaN
8.809,-8.789,-37.109,-41.016,5.371,0
8.813,-11.719,-45.410,-36.133,2.441,0
8.817,3.906,-59.082,-43.457,9.766,NaN
8.821,25.391,-40.039,-35.645,31.250,0
8.825,31.738,-45.898,-71.777,32.227,0
8.828,37.109,-34.668,-89.844,34.668,NaN
8.832,41.016,-10.254,-85.449,44.434,0
8.836,47.363,-24.902,-77.148,49.805,0
8.840,39.551,-42.480,-49.316,36.133,0
8.844,41.016,-45.898,-37.598,43.945,NaN
8.848,61.035,-31.738,-35.156,57.129,0
8.851,40.039,-29.785,-48.828,38.086,NaN
8.855,28.809,-20.508,-49.316,41.016,0
8.859,42.969,5.859,-41.016,54.199,0
8.863,37.109,-12.207,-41.504,41.504,NaN
8.867,35.645,-41.016,-41.992,35.156,0
8.871,37.109,-41.992,-58.105,41.016,0
8.874,34.668,-19.531,-88.379,43.945,0
8.878,32.715,-13.672,-86.426,41.016,NaN
8.882,32.227,-34.180,-35.645,40.039,0
8.886,45.410,-32.715,-18.066,47.363,0
8.890,47.363,-3.906,-25.879,53.223,0
8.894,23.926,-4.883,-37.598,33.203,NaN
8.895,10.742,-38.574,-66.895,16.113,0
8.899,26.855,-35.156,-69.824,30.273,0
8.903,19.531,-30.273,-55.664,27.832,NaN
8.907,1.465,-31.738,-40.527,15.625,0
8.911,16.113,-7.324,-18.555,26.367,0
8.915,29.785,-5.859,-14.648,36.621,0
8.918,25.391,-21.973,-23.926,29.785,0
8.922,10.742,-36.133,-43.945,20.996,NaN
8.926,-5.859,-32.715,-62.500,7.324,0
8.930,-9.766,-31.250,-63.965,3.418,0
8.934,3.906,-35.156,-68.848,8.301,0
8.938,20.996,-29.297,-58.105,13.184,NaN
8.941,27.344,-22.949,-41.016,16.113,0
8.945,20.508,-11.230,-26.367,7.812,0
8.949,8.301,-11.719,-12.695,5.859,0
8.953,1.953,-11.230,-17.090,-2.930,NaN
8.957,-2.441,-6.348,-27.832,-11.719,0
8.961,-10.742,-23.926,-43.457,-14.160,0
8.964,-3.418,-31.738,-60.059,-14.648,0
8.968,3.906,-26.367,-50.293,-7.324,0
8.972,12.695,-16.113,-38.574,7.812,NaN
8.976,23.926,-19.531,-28.809,15.137,0
8.980,6.836,-48.828,-13.184,-0.977,0
8.984,-11.230,-49.316,-10.254,-20.996,0
9.000,-3.418,-18.555,-19.531,-26.367,0
9.004,-1.465,4.395,-28.320,-14.648,0
9.008,-10.742,4.883,-13.672,-16.602,0
9.012,-5.859,-18.066,-31.738,-17.090,0
9.016,-10.254,-41.504,-66.895,-17.578,NaN
9.020,-2.441,-21.484,-42.480,-7.812,0
9.023,6.348,-29.785,-12.207,4.395,0
9.027,0.488,-51.270,-15.137,1.465,0
9.031,-8.789,-33.203,-25.391,-0.977,NaN
9.035,-14.648,-27.344,-14.648,-6.836,0
9.039,-15.137,-23.438,0.488,-22.949,0
9.043,-22.949,-34.180,-13.184,-37.109,NaN
9.045,-21.484,-23.438,-38.574,-37.109,0
9.049,-8.301,-4.395,-50.781,-23.926,NaN
9.053,3.906,-21.973,-47.363,-4.883,0
9.057,2.930,-37.109,-41.992,-2.441,NaN
9.061,0.000,-27.832,-40.527,-1.465,NaN
9.065,-0.488,-7.812,-11.230,4.883,NaN
9.068,-9.766,-4.395,3.418,0.000,0
9.072,-24.414,-22.461,-5.859,-20.508,0
9.076,-40.039,-35.156,-18.066,-37.109,NaN
9.080,-34.180,-39.062,-25.391,-26.367,0
9.084,-10.742,-21.484,-34.668,-10.254,0
9.088,5.371,-6.836,-52.246,-8.301,0
9.105,-10.742,-43.945,-72.266,-22.461,0
9.109,-37.598,-57.129,-40.039,-44.922,0
9.113,-40.039,-20.020,4.883,-44.434,0
9.117,-38.086,-14.160,9.766,-30.273,0
9.121,-33.691,-31.738,11.719,-25.879,NaN
9.125,-54.199,-46.387,-8.301,-47.363,0
9.128,-62.012,-39.551,-21.973,-52.246,0
9.132,-46.387,-31.738,-20.508,-39.062,0
9.136,-46.387,-43.457,-36.133,-35.645,NaN
9.140,-47.363,-48.828,-41.016,-43.457,NaN
9.144,-38.086,-47.363,-39.551,-46.875,NaN
9.148,-28.809,-63.477,-31.250,-36.621,NaN
9.135,-37.109,-78.125,-14.648,-32.227,NaN
9.139,-37.598,-32.715,-3.418,-21.973,0
9.143,-38.086,2.441,-4.883,-14.160,0
9.147,-51.270,-36.133,-29.785,-23.926,0
9.151,-44.922,-52.734,-33.691,-26.855,0
9.155,-24.414,-20.508,-16.602,-18.066,NaN
9.158,-22.949,-3.906,-18.555,-18.066,0
9.162,-35.645,-40.039,-38.574,-19.043,0
9.166,-35.156,-39.551,-28.809,-23.438,0
9.170,-24.902,-18.066,-8.789,-29.785,NaN
9.174,-20.508,-15.625,-4.395,-21.973,0
9.178,-25.879,-21.484,-13.184,-13.672,0
9.180,-33.691,-46.387,-25.391,-20.996,0
9.184,-35.645,-39.551,-33.203,-29.785,NaN
9.188,-26.855,-14.160,-26.367,-20.020,0
9.192,-13.184,-19.043,-24.414,-13.184,NaN
9.196,-15.625,-25.879,-28.809,-18.066,0
9.200,-26.367,-34.180,-16.602,-19.043,0
9.203,-35.645,-63.477,-8.301,-26.367,0
9.207,-24.414,-41.016,-6.348,-19.043,NaN
9.211,-19.531,-20.020,-26.367,-15.137,0
9.215,-35.645,-38.086,-39.551,-31.738,0
9.219,-34.668,-24.902,-24.414,-27.344,0
9.223,-25.879,-6.836,-19.043,-19.531,NaN
9.225,-24.902,-15.137,-24.902,-18.555,0
9.229,-34.180,-25.879,-28.320,-25.879,0
9.233,-40.527,-15.137,-15.625,-31.738,NaN
9.237,-35.156,-42.480,-2.441,-27.832,0
9.241,-30.762,-60.059,-15.625,-22.949,NaN
9.245,-35.645,-27.832,-29.297,-20.508,0
9.248,-41.504,-25.879,-18.066,-34.668,0
9.252,-41.016,-34.180,-7.812,-40.527,0
9.256,-42.480,-27.832,-26.367,-41.992,NaN
9.260,-35.156,-14.160,-44.434,-37.598,0
9.264,-20.020,-10.742,-51.758,-30.273,0
9.268,-18.066,-26.367,-41.992,-17.578,0
9.270,-29.785,-45.410,-10.742,-17.090,NaN
9.274,-28.320,-40.039,-1.465,-17.578,0
9.278,-26.855,-15.137,-16.602,-20.508,0
9.282,-45.410,-15.625,-23.438,-38.574,0
9.286,-45.898,-33.203,-17.578,-38.574,NaN
9.290,-39.062,-46.875,-42.480,-36.133,0
9.293,-38.574,-33.203,-61.035,-29.785,0
9.297,-45.898,-34.668,-50.293,-32.227,0
9.301,-31.738,-38.086,-16.602,-27.344,0
9.305,-21.973,-26.855,-12.695,-22.461,NaN
9.309,-35.645,-38.086,-25.391,-27.344,0
9.313,-31.738,-18.066,-13.184,-25.391,0
9.315,-30.273,-3.418,-6.348,-29.785,NaN
9.319,-38.086,-29.785,-1.953,-36.133,0
9.323,-44.922,-37.598,-8.301,-39.551,0
9.327,-54.688,-29.785,-25.391,-58.594,0
9.331,-61.035,-25.879,-31.250,-66.406,0
9.335,-43.945,-30.273,-31.250,-37.598,NaN
9.338,-22.949,-28.320,-45.898,-18.066,0
9.342,-18.555,-37.598,-40.527,-19.531,0
9.346,-24.414,-59.570,-27.832,-22.949,0
9.350,-14.160,-8.301,-30.273,-16.602,NaN
9.354,-37.598,20.508,-32.227,-49.316,0
9.358,-64.453,-8.789,-31.250,-74.219,0
9.360,-40.039,-19.043,-20.508,-53.223,NaN
9.364,-32.227,-28.809,-23.926,-47.363,0
9.368,-40.039,-33.203,-32.227,-47.363,0
9.372,-42.480,-25.391,-45.898,-44.434,0
9.376,-51.270,-27.344,-40.527,-49.805,NaN
9.380,-38.086,-27.344,-16.602,-35.156,0
9.383,-16.602,-28.320,-22.461,-19.531,0
9.387,-12.695,-38.086,-17.090,-17.090,NaN
9.391,-17.090,-21.973,-24.414,-16.113,0
9.395,-26.367,-6.348,-33.203,-28.320,0
9.399,-35.156,-16.113,-10.254,-43.457,0
9.403,-27.344,-21.484,-3.418,-27.832,0
9.420,-19.043,-19.531,-26.367,-18.555,0
9.424,-20.508,-24.902,-35.645,-27.832,0
9.428,-32.227,-24.902,-20.996,-33.691,NaN
9.432,-28.809,-22.461,-11.719,-31.738,0
9.436,-22.461,-44.922,-35.156,-24.902,0
9.440,-35.645,-34.668,-46.875,-34.180,0
9.443,-35.156,-3.418,-20.508,-40.527,0
9.447,-28.809,-0.977,-4.395,-41.992,NaN
9.451,-35.645,-21.973,-23.438,-49.805,0
9.455,-35.156,-40.039,-37.598,-47.852,0
9.459,-17.578,-34.668,-19.043,-27.832,0
9.463,-12.695,-12.207,-14.648,-20.996,NaN
9.465,-27.344,-13.672,-20.020,-27.344,0
9.469,-18.555,-36.133,-23.438,-25.879,0
9.473,-16.113,-42.480,-40.039,-29.785,0
9.477,-31.738,-18.066,-35.645,-40.039,NaN
9.481,-30.762,-1.465,-20.020,-39.062,0
9.485,-27.344,-5.859,-39.551,-34.180,0
9.488,-39.062,-27.832,-47.852,-41.992,0
9.492,-36.133,-40.039,-17.578,-50.293,0
9.496,-20.020,-13.672,6.348,-36.621,NaN
9.500,-25.879,-18.555,-10.254,-32.715,0
9.504,-30.762,-37.598,-21.973,-39.551,0
9.508,-30.762,-26.855,-19.531,-32.715,0
9.510,-35.645,-27.832,-43.457,-38.574,NaN
9.514,-29.297,-28.809,-66.406,-37.109,0
9.518,-20.020,-19.043,-44.434,-26.367,0
9.522,-22.461,-12.695,-19.531,-25.391,NaN
9.526,-32.715,-9.277,-10.254,-33.691,0
9.530,-29.297,-12.695,-2.930,-35.156,0
9.533,-35.645,-32.715,-19.531,-41.504,0
9.537,-47.363,-31.250,-39.551,-51.270,0
9.541,-36.621,-28.809,-32.227,-35.156,NaN
9.545,-28.809,-21.973,-33.203,-20.508,0
9.549,-30.273,-14.648,-32.715,-27.832,0
9.553,-37.598,-23.438,-43.457,-37.109,0
9.556,-41.016,-29.785,-35.645,-43.945,0
9.560,-52.246,-44.922,-11.719,-50.293,NaN
9.564,-55.664,-28.320,-10.254,-46.875,NaN
9.568,-45.410,-13.184,-26.367,-39.062,0
9.572,-45.898,-23.926,-35.645,-38.086,0
9.576,-46.875,-46.875,-31.738,-38.574,0
9.579,-43.945,-53.223,-32.715,-36.133,0
9.583,-36.133,-21.973,-40.527,-23.438,NaN
9.587,-24.414,-0.488,-43.945,-15.625,0
9.591,-36.621,0.488,-15.625,-26.855,0
9.595,-44.922,-22.949,-9.766,-33.203,NaN
9.599,-48.828,-54.199,-29.785,-40.527,0
9.600,-56.152,-44.922,-26.855,-45.898,NaN
9.604,-50.781,-18.555,-18.066,-41.992,0
9.608,-41.992,-21.973,-27.832,-34.180,0
9.612,-23.926,-42.969,-39.551,-20.020,NaN
9.616,-11.719,-31.250,-39.062,-10.742,0
9.620,-14.648,-10.742,-21.484,-14.648,0
9.623,-33.203,-23.926,-13.184,-31.738,0
9.627,-40.527,-20.020,-18.555,-38.086,0
9.631,-28.320,-0.488,-22.461,-29.297,NaN
9.635,-32.227,-21.973,-26.855,-34.668,0
9.639,-45.410,-47.363,-31.250,-43.945,0
9.643,-40.527,-33.203,-43.945,-43.945,0
9.660,-28.320,-30.762,-44.922,-46.875,0
9.664,-15.625,-33.691,-14.160,-37.598,0
9.668,-18.066,-24.902,-18.066,-33.203,0
9.672,-31.250,-22.461,-28.320,-27.832,0
9.676,-29.297,-24.902,-12.207,-22.461,0
9.680,-32.227,-18.066,-18.555,-22.949,NaN
9.683,-36.621,4.883,-20.508,-12.695,0
9.687,-36.133,-6.348,-13.672,-18.066,0
9.691,-42.480,-52.734,-40.039,-40.039,NaN
9.695,-45.898,-51.758,-37.109,-45.898,0
9.699,-42.480,-18.066,-5.371,-40.039,0
9.703,-36.133,-20.020,-8.789,-37.598,0
9.691,-22.949,-29.297,-5.371,-25.391,0
9.695,-23.926,-15.137,-2.441,-22.949,NaN
9.699,-33.691,-6.348,-29.785,-34.668,NaN
9.703,-28.320,-16.602,-32.227,-32.227,NaN
9.707,-17.090,-17.578,-24.902,-20.020,NaN
9.711,-8.789,-19.043,-34.180,-7.812,0
9.714,-18.066,-39.062,-26.367,-8.301,0
9.718,-28.809,-45.410,-12.695,-20.020,0
9.722,-41.992,-30.762,-6.836,-33.203,NaN
9.726,-45.898,-24.414,0.977,-33.691,0
9.730,-45.410,-38.574,-12.207,-25.879,0
9.734,-45.898,-52.734,-21.484,-30.762,NaN
9.735,-49.316,-62.500,-13.672,-41.992,0
9.739,-50.293,-58.105,-1.953,-41.992,0
9.743,-41.016,-38.574,-0.488,-36.133,NaN
9.747,-39.062,-45.898,6.836,-34.180,0
9.751,-42.480,-60.059,5.371,-39.062,0
9.755,-50.781,-52.246,-28.320,-37.598,0
9.758,-59.570,-38.574,-24.414,-41.992,0
9.762,-41.504,-28.320,-3.418,-36.133,NaN
9.766,-23.926,-36.133,-14.160,-21.484,0
9.770,-32.227,-31.250,-35.645,-25.879,0
9.774,-30.273,-11.719,-36.621,-20.020,0
9.778,-31.250,-31.738,-20.996,-28.809,0
9.795,-41.016,-55.664,-13.672,-45.898,0
9.799,-42.969,-46.387,6.836,-49.316,0
9.803,-40.527,-33.203,-4.395,-42.480,NaN
9.807,-34.668,-27.832,-33.203,-35.645,0
9.811,-37.109,-35.156,-39.062,-41.992,0
9.815,-36.621,-47.852,-54.688,-34.668,NaN
9.818,-22.949,-41.992,-43.945,-16.602,0
9.822,-16.113,-20.508,-24.902,-16.113,0
9.826,-15.137,-8.789,-18.066,-16.113,0
9.830,-29.297,-26.855,-10.742,-24.414,0
9.834,-34.180,-34.668,-11.230,-39.062,0
9.838,-28.320,-22.461,-17.578,-37.598,NaN
9.840,-28.320,-19.531,-23.438,-25.879,0
9.844,-40.039,-23.926,-50.781,-38.086,0
9.848,-40.039,-26.367,-74.707,-39.062,NaN
9.852,-30.762,-37.109,-42.969,-29.297,0
9.856,-33.203,-23.926,-11.230,-32.715,0
9.860,-29.785,-6.348,-24.414,-28.320,0
9.863,-28.809,-21.973,-19.531,-24.414,0
9.867,-27.832,-32.227,-3.418,-24.414,NaN
9.871,-33.203,-35.645,-19.531,-35.156,0
9.875,-46.387,-36.621,-19.043,-40.527,0
9.879,-47.852,-41.504,-40.527,-44.434,0
9.883,-35.156,-46.875,-64.453,-35.156,0
9.900,-27.832,-38.574,-23.438,-27.344,0
9.904,-31.250,-16.602,-14.648,-36.133,0
9.908,-33.691,-2.930,-26.367,-40.527,0
9.912,-37.598,-20.508,-26.367,-38.574,NaN
9.916,-48.340,-26.367,-23.926,-36.621,0
9.920,-48.828,-37.109,-13.184,-42.969,0
9.923,-49.805,-46.387,-14.648,-44.434,0
9.927,-38.086,-23.438,-40.039,-31.738,0
9.931,-32.715,-30.762,-50.293,-22.461,0
9.935,-43.945,-51.270,-32.227,-28.809,NaN
9.939,-35.156,-34.180,-22.949,-29.297,0
9.943,-17.578,-29.297,-19.531,-18.066,0
9.946,-22.949,-22.949,-20.508,-21.973,0
9.950,-42.480,-12.207,-34.668,-44.922,NaN
9.954,-45.898,-14.160,-39.062,-52.246,0
9.958,-32.227,-31.738,-30.762,-35.156,0
9.962,-26.855,-31.250,-25.391,-32.227,0
9.966,-45.898,-26.855,-25.879,-40.527,NaN
9.969,-45.898,-31.250,-23.926,-34.668,0
9.973,-35.156,-13.672,-12.207,-33.691,0
9.977,-27.344,-25.879,-18.066,-32.715,0
9.981,-26.855,-45.898,-32.227,-30.762,NaN
9.985,-27.344,-16.602,-43.457,-34.180,NaN
9.989,-35.645,-2.441,-58.105,-38.086,NaN
9.975,-47.852,-17.578,-61.035,-45.898,NaN
9.979,-33.203,-15.137,-44.922,-43.457,NaN
9.983,-25.391,-27.344,-22.461,-38.086,0
9.987,-37.109,-52.246,-11.230,-46.875,NaN
9.991,-44.434,-55.664,-7.324,-53.223,0
9.995,-38.574,-26.855,-17.090,-40.039,0
9.998,-32.715,-20.020,-42.480,-26.855,NaN
10.002,-31.250,-34.180,-39.062,-28.320,0
10.006,-36.621,-20.996,-33.691,-32.715,0
10.010,-34.180,-6.348,-62.500,-32.227,0
10.014,-27.344,-9.277,-40.527,-25.879,0
10.018,-36.621,-21.484,-8.301,-36.133,NaN
10.020,-32.227,-29.785,-6.836,-40.039,0
10.024,-28.809,-40.527,-16.602,-36.621,0
10.028,-26.855,-35.156,-30.273,-37.598,NaN
10.032,-33.691,-27.832,-43.457,-44.922,0
10.036,-31.738,-23.926,-53.711,-32.227,0
10.040,-25.391,-27.344,-71.289,-23.438,0
10.043,-42.969,-25.879,-34.180,-40.039,0
10.047,-43.945,-21.973,8.789,-44.922,NaN
10.051,-37.598,-21.484,-8.789,-47.852,0
10.055,-38.086,-27.344,-18.066,-45.410,0
10.059,-26.367,-31.250,-20.996,-23.438,0
10.063,-24.902,-31.250,-30.762,-20.508,NaN
10.065,-31.250,-26.367,-28.320,-23.926,0
10.069,-28.809,-18.555,-48.828,-18.066,0
10.073,-32.227,-4.395,-59.082,-24.902,0
10.077,-30.762,-13.184,-21.973,-32.715,0
10.081,-32.715,-23.438,5.859,-36.621,NaN
10.085,-52.246,-23.926,-7.812,-46.387,0
10.088,-51.758,-28.809,-15.625,-47.852,0
10.092,-47.363,-39.062,-14.160,-45.898,0
10.096,-47.363,-37.109,-27.832,-41.504,0
10.100,-36.621,-38.574,-34.668,-29.785,NaN
10.104,-28.809,-40.527,-66.895,-20.996,0
10.108,-25.391,-16.602,-76.172,-19.043,0
10.110,-22.461,-6.348,-22.949,-18.066,NaN
10.114,-29.297,-23.438,3.906,-19.043,0
10.118,-36.621,-24.414,0.488,-26.855,0
10.122,-46.387,-23.438,-19.531,-41.992,0
10.126,-48.340,-39.062,-24.414,-41.992,0
10.130,-36.133,-40.039,-12.695,-20.508,NaN
10.133,-18.066,-24.902,-23.438,-5.371,0
10.137,-27.344,-21.484,-50.293,-23.926,0
10.141,-40.039,-26.367,-54.199,-44.922,0
10.145,-32.715,-17.578,-45.898,-41.992,0
10.149,-26.855,-10.742,-39.551,-28.320,NaN
10.153,-22.949,-0.488,-35.645,-29.297,0
10.170,-25.879,-10.254,-39.551,-36.133,0
10.174,-23.438,-12.207,-53.223,-38.574,1
10.178,-22.949,0.488,-55.176,-46.387,NaN
10.182,-23.438,3.906,-41.992,-52.246,1
10.186,-20.020,-4.395,-56.641,-57.129,1
10.190,-18.555,-2.930,-74.219,-53.223,1
10.193,-21.484,0.488,-60.059,-56.641,NaN
10.197,-27.832,-6.348,-45.898,-57.129,1
10.201,-19.531,6.348,-56.152,-43.457,NaN
10.205,-16.602,25.879,-52.246,-33.203,NaN
10.209,-33.203,0.977,-49.316,-44.434,1
10.213,-36.133,-42.969,-52.246,-50.293,1
10.215,-16.602,-11.230,-33.203,-32.715,NaN
10.219,-10.742,18.066,-31.250,-29.785,1
10.223,-22.949,-3.418,-55.176,-42.480,1
10.227,-22.461,-7.812,-64.941,-38.574,1
10.231,-18.066,-22.949,-52.246,-41.992,NaN
10.235,-8.301,-20.508,-36.133,-40.527,1
10.238,4.883,13.184,-33.203,-28.809,1
10.242,-5.371,8.789,-47.363,-38.574,1
10.246,-17.090,-5.371,-41.992,-45.410,NaN
10.250,-18.066,0.000,-17.578,-40.527,1
10.254,-20.020,-4.395,-7.812,-39.062,1
10.258,-20.508,-30.762,-34.180,-30.762,1
10.260,-0.977,-22.949,-46.875,-14.648,NaN
10.264,9.277,-9.277,-18.555,-10.742,1
10.268,-6.348,-27.832,-13.672,-17.090,1
10.272,-14.160,-37.598,-31.738,-27.832,1
10.276,-13.184,-12.207,-38.574,-30.762,NaN
10.280,-13.184,-2.441,-38.086,-27.832,1
10.283,-16.602,-9.766,-35.156,-39.551,1
10.287,-1.465,-7.812,-22.949,-25.879,1
10.291,5.371,-8.789,-26.367,-16.113,NaN
10.295,4.395,-8.301,-28.809,-23.438,1
10.299,-1.465,-32.227,-13.672,-20.996,1
10.303,-18.555,-25.879,-14.648,-32.227,1
10.305,-22.949,-0.488,-20.020,-34.668,NaN
10.309,-23.926,-20.996,-21.484,-24.414,1
10.313,-24.414,-21.973,-15.625,-21.973,1
10.317,-24.902,-11.719,-15.625,-32.227,1
10.321,-33.203,-27.344,-36.133,-40.039,NaN
10.325,-32.715,-26.855,-39.062,-34.180,1
10.328,-27.344,-6.836,-36.133,-26.367,1
10.332,-23.926,-5.371,-31.738,-19.043,NaN
10.336,-21.484,-24.414,-17.090,-22.461,1
10.340,-22.461,-41.016,-18.066,-22.461,1
10.344,-27.344,-55.176,-29.297,-26.367,1
10.348,-23.438,-37.109,-30.273,-20.996,NaN
10.351,-1.953,-14.648,-8.789,0.977,1
10.355,-14.160,-17.578,-15.137,-17.090,1
10.359,-44.922,-17.578,-28.320,-46.387,1
10.363,-49.316,-4.883,-12.207,-49.316,NaN
10.367,-31.250,4.395,-12.207,-33.691,NaN
10.371,-10.254,3.906,-45.410,-27.832,1
10.374,-19.043,1.465,-64.941,-40.039,1
10.378,-18.066,-5.859,-46.387,-35.645,1
10.382,-11.230,-16.602,-29.785,-42.480,1
10.386,-17.090,-29.297,-28.809,-58.594,1
10.390,-22.949,-38.574,-32.227,-57.617,NaN
10.394,-20.508,-42.969,-27.832,-48.340,1
10.397,-12.695,-25.879,-43.945,-46.387,0
10.401,-19.043,-6.348,-45.410,-49.316,0
10.405,-22.949,-21.973,-37.598,-44.434,NaN
10.409,-25.391,0.977,-51.270,-38.086,0
10.413,-28.809,21.973,-39.062,-38.574,0
10.417,-21.973,-3.906,-38.574,-38.574,0
10.420,-16.602,-16.602,-43.457,-29.785,NaN
10.424,-17.090,-21.973,-28.320,-22.949,0
10.428,-23.926,-24.414,-27.344,-35.156,0
10.432,-39.062,-20.020,-25.879,-38.574,0
10.436,-43.457,-5.859,-19.531,-32.715,0
10.440,-39.062,-11.230,-12.695,-27.832,0
10.456,-33.691,-30.273,-12.695,-20.508,0
10.460,-31.738,-24.414,-33.203,-23.926,0
10.464,-36.133,-28.320,-37.109,-31.250,0
10.468,-30.762,-31.250,-17.090,-24.414,NaN
10.472,-14.648,-15.137,-18.555,-11.230,0
10.476,-17.090,-14.648,-30.762,-9.766,0
10.479,-26.367,-17.090,-27.832,-14.160,0
10.483,-32.227,-4.883,-24.414,-21.973,0
10.487,-33.691,-2.930,-17.578,-27.344,0
10.491,-28.320,-25.391,-23.926,-32.227,NaN
10.495,-19.531,-44.434,-26.855,-22.949,NaN
10.499,-10.742,-20.508,-27.344,-8.789,NaN
10.486,-15.625,-15.625,-31.250,-21.484,NaN
10.490,-23.438,-28.809,-13.672,-28.809,NaN
10.494,-29.785,-22.949,-12.207,-30.273,0
10.498,-15.137,0.977,-20.020,-12.695,0
10.502,-12.207,6.836,-33.691,-0.977,0
10.506,-21.973,-17.090,-50.781,-20.020,0
10.509,-23.438,-30.273,-37.598,-31.738,NaN
10.513,-32.715,-41.992,-8.301,-33.203,0
10.517,-28.320,-52.734,-19.043,-28.809,0
10.521,-20.020,-47.852,-24.414,-14.160,0
10.525,-13.184,-20.996,2.441,-0.977,NaN
10.529,-25.391,-5.371,-11.230,-25.879,0
10.545,-42.480,-15.137,-22.461,-45.410,0
10.549,-38.574,-17.090,-21.484,-35.645,0
10.553,-39.062,-18.066,-48.340,-37.109,0
10.557,-34.180,-14.160,-47.363,-28.320,0
10.561,-16.113,-17.090,-13.184,-3.418,0
10.565,-11.230,-38.086,-19.531,-9.766,0
10.568,-30.273,-29.297,-28.809,-36.133,NaN
10.572,-43.457,-6.348,-30.273,-44.434,0
10.576,-35.156,0.000,-22.949,-38.574,0
10.580,-22.949,-1.465,-5.371,-29.297,0
10.584,-27.344,-17.578,-20.020,-32.715,NaN
10.588,-35.156,-31.250,-45.410,-50.781,0
10.590,-27.344,-14.648,-46.387,-46.387,0
10.594,-27.832,-13.184,-29.297,-41.504,NaN
10.598,-41.504,-26.367,-38.086,-48.340,0
10.602,-31.738,-6.836,-52.734,-33.691,0
10.606,-20.508,-12.695,-47.852,-25.879,0
10.610,-25.391,-37.598,-37.109,-32.227,0
10.613,-17.090,-25.391,-33.203,-25.391,NaN
10.617,-17.090,-18.066,-19.531,-20.996,0
10.621,-34.668,-18.066,-19.531,-35.156,0
10.625,-32.715,-18.066,-22.461,-38.574,0
10.629,-37.109,-40.039,-36.621,-46.387,NaN
10.633,-31.250,-27.832,-46.875,-38.574,0
10.651,-18.555,-4.395,-32.227,-21.484,0
10.655,-22.461,-13.184,-41.504,-20.020,0
10.659,-32.715,-12.207,-53.223,-23.438,0
10.663,-36.133,-19.531,-19.043,-33.203,NaN
10.667,-23.926,-16.113,6.836,-20.996,0
10.671,-27.344,-11.230,-10.254,-19.531,0
10.674,-37.598,-31.250,-25.391,-35.156,0
10.678,-34.180,-14.160,-22.949,-36.133,NaN
10.682,-26.367,-9.277,-20.996,-29.297,NaN
10.686,-17.090,-19.531,-22.949,-18.555,NaN
10.690,-22.949,-31.738,-34.180,-23.438,0
10.694,-26.367,-30.762,-36.133,-27.832,0
10.680,-28.320,-14.648,-35.645,-24.902,0
10.684,-36.133,-18.555,-28.320,-26.855,0
10.688,-26.855,-24.414,-2.930,-26.367,NaN
10.692,-40.527,-19.531,-3.418,-35.156,NaN
10.696,-55.664,-15.625,-27.344,-41.504,NaN
10.700,-49.805,-22.461,-29.297,-41.992,0
10.703,-39.551,-24.414,-28.320,-41.504,0
10.707,-30.762,-17.090,-27.344,-22.461,NaN
10.711,-36.133,-21.973,-27.344,-27.344,0
10.715,-44.434,-21.484,-29.297,-43.457,0
10.719,-45.898,-7.324,-36.621,-39.551,0
10.723,-48.828,-17.578,-35.156,-37.109,NaN
10.726,-45.410,-38.574,-10.254,-30.762,0
10.730,-36.133,-46.875,-20.508,-26.855,NaN
10.734,-29.785,-33.203,-42.969,-35.645,0
10.738,-48.828,-24.902,-27.344,-51.758,0
10.742,-60.547,-49.316,-16.602,-62.500,NaN
10.746,-37.109,-41.016,-11.719,-31.250,0
10.749,-24.902,-19.531,-4.883,-9.766,0
10.753,-28.809,-7.324,-26.367,-11.719,0
10.757,-36.621,5.859,-47.852,-10.742,0
10.761,-30.762,-15.137,-22.461,-9.766,NaN
10.765,-30.273,-29.297,-2.441,-9.277,0
10.769,-45.410,-28.320,-31.738,-27.344,0
10.770,-20.996,-17.090,-45.898,-16.602,NaN
10.774,-2.930,-6.836,-23.438,-5.371,0
10.778,-41.016,-21.973,-6.348,-34.668,0
10.782,-66.406,-31.250,-10.254,-49.316,0
10.786,-62.500,-51.758,-14.160,-49.316,0
10.790,-55.176,-72.754,-8.301,-41.992,NaN
10.793,-46.875,-60.547,-4.395,-24.414,0
10.797,-46.875,-42.480,0.488,-19.043,0
10.801,-61.523,-58.105,-18.066,-43.945,0
10.805,-62.500,-69.336,-36.621,-47.852,NaN
10.809,-48.828,-47.363,-19.531,-30.762,0
10.813,-51.758,-41.016,-28.320,-37.109,0
10.815,-59.082,-49.805,-28.809,-42.480,NaN
10.819,-49.316,-44.434,-3.906,-39.551,0
10.823,-47.363,-32.715,-3.906,-40.039,0
10.827,-40.527,-40.527,-4.395,-32.715,0
10.831,-23.438,-56.152,16.602,-16.113,0
10.835,-26.855,-58.594,5.859,-19.531,NaN
10.838,-31.250,-42.480,-20.020,-19.531,0
10.842,-32.227,-24.414,-44.922,-13.672,0
10.846,-39.551,-20.996,-52.246,-22.461,0
10.850,-42.969,-13.184,-4.395,-31.250,0
10.854,-50.781,-24.414,15.625,-41.504,0
10.858,-56.641,-42.480,-9.766,-41.016,0
10.862,-47.363,-48.340,-18.555,-32.715,NaN
10.866,-30.762,-41.504,0.488,-16.602,0
10.870,-13.672,-25.391,12.207,1.953,0
10.874,-21.484,-32.715,-10.254,-8.301,0
10.878,-48.340,-51.758,-41.992,-37.109,NaN
10.882,-47.363,-48.340,-53.223,-35.645,0
10.885,-32.227,-19.531,-46.875,-28.320,0
10.889,-30.273,-26.855,-33.691,-30.762,NaN
10.893,-33.691,-32.715,-16.602,-33.203,0
10.897,-37.109,-26.855,2.441,-39.062,0
10.901,-40.527,-35.156,0.977,-41.016,0
10.905,-31.738,-33.691,-4.395,-30.762,0
10.921,-34.668,-35.156,-10.742,-30.762,0
10.925,-41.504,-17.090,-33.203,-43.945,NaN
10.929,-43.457,-26.367,-37.598,-45.410,0
10.933,-31.738,-28.809,-26.367,-22.461,0
10.937,-21.484,-22.461,-48.340,-14.160,0
10.941,-31.250,-41.504,-45.410,-28.809,NaN
10.944,-39.062,-42.480,-29.297,-37.598,0
10.948,-34.180,-27.832,-13.184,-34.180,0
10.952,-37.109,-31.738,1.953,-24.414,0
10.956,-33.691,-42.480,4.883,-23.926,0
10.960,-31.250,-37.598,-10.742,-23.438,NaN
10.964,-49.805,-21.484,-37.598,-33.691,0
10.965,-41.992,-10.742,-32.227,-28.320,NaN
10.969,-31.738,-26.855,-34.180,-18.555,0
10.973,-30.273,-18.555,-40.527,-20.508,0
10.977,-32.227,-10.254,-52.246,-21.973,0
10.981,-41.992,-41.992,-39.551,-30.762,NaN
10.985,-48.828,-41.016,-9.766,-39.062,0
10.988,-45.410,-14.648,-3.906,-32.715,0
10.992,-40.039,-25.879,-5.859,-31.738,0
10.996,-37.109,-43.945,-2.930,-25.391,0
11.000,-42.480,-39.551,-17.578,-26.855,0
11.004,-49.805,-28.320,-41.504,-43.457,0
11.008,-42.480,-17.090,-35.156,-39.551,NaN
11.010,-32.715,-9.277,-26.855,-34.668,0
11.014,-33.691,-20.020,-40.039,-40.527,0
11.018,-35.645,-18.555,-39.551,-34.180,NaN
11.022,-39.062,-34.180,-34.180,-34.668,0
11.026,-32.715,-51.758,-20.508,-32.715,0
11.030,-25.879,-26.367,-1.465,-25.879,0
11.033,-39.551,-19.531,-15.625,-36.621,0
11.037,-39.062,-23.438,-32.715,-37.109,0
11.041,-35.645,-22.461,-25.391,-32.715,0
11.045,-36.133,-19.043,-18.066,-32.715,NaN
11.049,-32.227,-15.137,-17.090,-24.902,0
11.053,-41.016,-32.227,-23.438,-28.809,0
11.055,-39.062,-36.133,-29.297,-32.715,NaN
11.059,-39.551,-49.316,-35.645,-34.668,0
11.063,-42.480,-56.152,-40.039,-39.062,0
11.067,-40.039,-34.180,-8.789,-36.133,0
11.071,-42.480,-28.320,8.301,-36.621,0
11.075,-35.156,-30.273,-16.602,-25.879,NaN
11.078,-18.555,-8.789,-30.762,-8.301,0
11.082,-22.949,1.953,-25.879,-3.418,NaN
11.086,-44.434,-27.832,-30.273,-26.367,0
11.090,-53.223,-43.457,-5.859,-35.645,0
11.094,-50.781,-44.922,10.254,-29.297,0
11.098,-56.641,-43.457,-3.906,-33.203,NaN
11.100,-55.664,-36.621,5.859,-28.809,0
11.104,-55.176,-42.480,-3.906,-28.320,0
11.108,-63.477,-54.688,-15.625,-37.598,NaN
11.112,-63.477,-66.406,-23.926,-38.086,0
11.116,-49.805,-53.711,-20.508,-32.227,0
11.120,-54.199,-45.898,-10.254,-41.016,0
11.123,-62.012,-43.457,-13.672,-43.457,NaN
11.127,-53.711,-30.273,-16.602,-29.785,0
11.131,-43.945,-29.785,-19.531,-19.531,0
11.135,-48.828,-46.387,-21.484,-21.973,0
11.139,-55.176,-39.551,-15.625,-26.855,0
11.143,-46.875,-31.250,-10.254,-21.484,NaN
11.146,-44.434,-53.711,-8.301,-23.438,0
11.150,-40.527,-41.992,-19.043,-20.508,0
11.154,-32.227,-32.227,-30.762,-11.719,0
11.158,-38.574,-39.062,-23.438,-17.578,NaN
11.162,-43.457,-42.480,-28.809,-26.367,0
11.166,-35.156,-47.363,-20.508,-25.391,0
11.169,-36.621,-37.109,-8.789,-20.020,0
11.173,-37.598,-33.691,-9.277,-16.113,0
11.177,-36.621,-26.855,-6.348,-22.949,0
11.181,-44.434,-19.043,-21.973,-29.297,NaN
11.185,-44.434,-22.461,-40.039,-35.156,0
11.189,-34.668,-32.227,-33.691,-39.551,0
11.191,-25.879,-35.156,-31.250,-27.344,NaN
11.195,-29.297,-44.922,-24.414,-20.996,0
11.199,-36.133,-42.480,-14.648,-24.902,0
11.203,-36.133,-28.809,-18.555,-30.273,0
11.207,-24.414,-44.922,-13.184,-25.391,NaN
11.211,-32.227,-46.875,-19.043,-30.762,0
11.214,-48.340,-10.254,-34.180,-35.156,0
11.218,-46.387,-5.371,-37.598,-36.621,0
11.222,-41.992,-35.156,-25.879,-40.527,0
11.226,-23.438,-30.762,-27.344,-22.461,0
11.230,-26.855,-26.367,-39.551,-25.391,NaN
11.234,-44.922,-33.203,-26.855,-38.574,0
11.235,-36.133,-21.484,-7.812,-40.039,NaN
11.239,-24.414,-11.719,-2.930,-31.250,0
11.243,-32.715,-31.250,-16.113,-27.344,0
11.247,-35.645,-37.109,-32.227,-26.855,0
11.251,-32.715,-29.297,-41.504,-30.762,0
11.255,-42.480,-37.598,-29.297,-40.039,NaN
11.258,-48.828,-46.387,-30.273,-46.875,0
11.262,-34.180,-30.273,-30.762,-38.086,NaN
11.266,-20.508,-11.719,-15.625,-20.996,0
11.270,-27.832,-15.137,-28.320,-18.066,0
11.274,-24.414,-9.766,-33.691,-13.184,NaN
11.278,-18.066,-3.418,-14.160,-13.184,0
11.295,-26.367,-6.348,-3.418,-22.461,0
11.299,-40.527,-13.672,-8.301,-35.645,0
11.303,-46.875,-11.230,-25.391,-34.668,0
11.307,-39.551,-19.531,-22.461,-24.902,0
11.311,-30.762,-40.527,-20.996,-23.926,0
11.315,-22.949,-44.922,-39.062,-18.066,NaN
11.318,-15.625,-31.738,-48.828,-21.484,0
11.322,-18.066,-18.555,-40.039,-31.250,0
11.326,-17.090,-25.391,-24.902,-29.297,0
11.330,-10.742,-20.020,-20.508,-31.250,0
11.334,-12.207,-20.020,-21.973,-30.762,0
11.338,-30.762,-35.645,-22.949,-35.645,NaN
11.340,-42.480,-20.996,-19.531,-43.457,0
11.344,-24.414,-5.371,-30.273,-33.203,0
11.348,-16.113,-17.578,-27.344,-20.508,NaN
11.352,-36.133,-23.926,-6.348,-17.090,0
11.356,-40.527,-21.973,-26.855,-24.414,0
11.360,-31.250,-10.742,-39.551,-18.555,0
11.363,-52.734,-17.578,-10.254,-27.832,0
11.367,-67.383,-52.734,0.488,-48.340,NaN
11.371,-62.500,-65.918,-2.930,-44.434,0
11.375,-62.012,-62.988,-7.812,-36.133,0
11.379,-74.219,-48.340,-15.625,-48.828,0
11.383,-75.684,-37.598,-1.465,-56.152,NaN
11.386,-63.477,-54.199,-8.789,-47.363,0
11.390,-57.617,-66.895,-31.738,-41.016,0
11.394,-44.434,-42.480,-33.691,-29.785,0
11.398,-41.016,-20.020,-23.438,-20.020,0
11.402,-46.875,-21.973,-9.277,-25.391,NaN
11.406,-59.082,-58.105,-19.531,-42.480,0
11.409,-61.523,-62.988,-25.391,-47.363,0
11.413,-52.734,-29.297,-32.227,-38.574,0
11.417,-50.781,-11.230,-23.438,-32.715,NaN
11.421,-38.574,-23.926,15.625,-30.273,0
11.425,-33.203,-41.992,9.277,-27.832,0
11.429,-44.434,-35.645,-34.668,-24.902,0
11.430,-34.668,-30.273,-39.551,-16.113,NaN
11.434,-29.297,-22.949,-16.113,-20.508,0
11.438,-30.273,-17.090,-4.883,-24.902,NaN
11.442,-33.203,-29.297,-13.672,-29.297,0
11.446,-35.645,-50.781,-21.484,-36.621,0
11.450,-41.992,-53.223,-23.926,-39.551,0
11.453,-44.922,-30.273,-23.926,-35.156,0
11.457,-38.574,-30.273,-16.602,-23.926,NaN
11.461,-28.320,-33.203,-16.602,-12.695,0
11.465,-10.254,-22.461,-0.977,-3.906,NaN
11.469,-19.531,-22.461,9.277,-12.207,0
11.473,-40.039,-32.227,-8.301,-22.949,NaN
11.475,-35.645,-15.625,-32.227,-27.832,0
11.479,-30.762,-13.184,-30.273,-32.227,0
11.483,-28.809,-41.504,-37.109,-27.344,NaN
11.487,-27.344,-40.039,-54.199,-27.832,0
11.491,-30.762,-35.645,-38.574,-32.715,0
11.495,-25.879,-33.203,-25.879,-25.391,0
11.498,-27.832,-3.906,-13.672,-23.926,0
11.502,-30.762,3.418,4.395,-27.832,NaN
11.506,-25.879,-10.254,4.883,-29.297,0
11.510,-21.484,-18.066,-1.953,-26.855,0
11.514,-25.879,-30.762,-30.762,-34.668,0
11.518,-34.180,-42.969,-63.965,-42.480,0
11.521,-40.527,-42.480,-63.965,-43.945,NaN
11.525,-35.156,-29.297,-41.504,-41.504,0
11.529,-23.926,-20.020,-31.250,-32.715,0
11.533,-24.902,-25.391,-36.133,-38.574,0
11.537,-34.668,-31.250,-19.531,-41.504,NaN
11.541,-25.391,-34.668,-2.930,-30.273,0
11.544,-21.973,-32.227,-13.672,-28.809,0
11.548,-36.621,-18.555,-20.020,-39.551,0
11.552,-35.645,-14.160,-16.113,-35.645,NaN
11.556,-29.785,-24.902,-41.016,-32.227,0
11.560,-39.062,-26.367,-58.594,-45.410,0
11.564,-48.828,-29.297,-50.781,-52.246,0
11.569,-55.664,-34.668,-46.387,-57.617,0
11.573,-43.945,-23.438,-28.320,-44.434,0
11.577,-26.367,-36.621,-19.531,-25.879,NaN
11.581,-27.832,-41.992,-11.230,-34.668,0
11.585,-19.531,-10.254,-2.441,-25.391,0
11.589,-22.461,-20.020,-13.672,-22.949,0
11.592,-23.926,-50.293,-5.371,-24.414,0
11.596,-5.859,-30.273,-11.230,-10.742,NaN
11.600,-20.020,-19.043,-51.270,-31.250,0
11.604,-37.109,-11.230,-48.340,-39.551,0
11.608,-35.645,-3.418,-20.020,-28.320,0
11.612,-34.180,-25.879,-20.508,-34.180,NaN
11.611,-26.855,-31.250,-3.418,-29.297,NaN
11.615,-18.555,-24.902,0.488,-18.555,0
11.619,-17.090,-36.133,-16.602,-14.160,0
11.623,-25.879,-33.691,-11.230,-10.742,0
11.627,-27.344,-20.996,-17.578,-13.184,NaN
11.631,-26.367,-36.621,-31.250,-21.973,0
11.634,-18.066,-26.367,-13.672,-7.324,0
11.638,-19.043,-14.648,-13.184,-9.766,0
11.642,-32.715,-40.039,-30.762,-37.109,NaN
11.646,-39.062,-24.902,-18.555,-39.551,0
11.650,-33.203,-4.395,-26.367,-34.180,NaN
11.654,-30.273,-12.207,-39.551,-21.973,0
11.670,-39.551,-16.113,-24.902,-26.855,0
11.674,-30.762,-31.250,-8.301,-29.785,0
11.678,-34.668,-58.105,-16.602,-38.086,0
11.682,-46.387,-31.738,-27.344,-44.434,NaN
11.686,-43.457,-8.789,-23.438,-34.668,0
11.690,-36.133,-21.484,-27.832,-34.668,0
11.693,-33.691,-25.879,-28.320,-39.062,0
11.697,-22.461,-26.367,-20.508,-30.273,0
11.701,-29.297,-22.461,-20.508,-29.785,NaN
11.705,-40.039,-15.625,-21.973,-40.039,0
